* Measurement data measured by REW V5.31.3
* Source: PCM: default, no input selected, 2, volume: no control
* Format: 8192-point spectrum using Hann window and exponential averaging 0.97 
* Dated: Mar 9, 2025 12:56:49 PM
* REW Settings:
*  C-weighting compensation: Off
*  Target level: 75.0 dB
* Note: OSDEHA ANODE-OUTPUT; 8192-point spectrum using Hann window and exponential averaging 0.97  Input RMS 13.33 V 13.33 VC, 13.33 VA 13.33 V 22 - 22k UNW 889.0 uV >22k Distortion at 1,000.0 Hz, -17.51 dBFS: Gain: 29.34 dB THD: 0.012 % based on 21 harmonics  [0..22800 Hz] HHD: 0.0027 %  [10 .. 22] N: 0.093 %  [0..22800 Hz] N+D: 4.492 mV A THD+N: 0.094 %  [0..22800 Hz] SNR: 60.6 dB ENOB: 13.2 bits 2nd harmonic 0.011 % -148 deg 3rd harmonic 0.00094 % 112 deg 4th harmonic 0.00075 % 156 deg 5th harmonic 0.00076 % -7 deg 6th harmonic 0.00075 % -151 deg 7th harmonic 0.00083 % -172 deg 8th harmonic 0.00083 % 168 deg 9th harmonic 0.00075 % -87 deg
* Measurement: OSDEHA A-OUT 13.3V
* Smoothing: None
* Frequency Step: 5.859375 Hz
* Start Frequency: 5.859375 Hz
*
* Freq(Hz); V(V)
5.859375; 7.61829E-4
11.718750; 3.78818E-4
17.578125; 2.16756E-4
23.437500; 1.55962E-4
29.296875; 1.43628E-4
35.156250; 1.42953E-4
41.015625; 1.43353E-4
46.875000; 3.78341E-4
52.734375; 3.92117E-4
58.593750; 1.57699E-4
64.453125; 1.33200E-4
70.312500; 1.47558E-4
76.171875; 1.42565E-4
82.031250; 1.38388E-4
87.890625; 1.88319E-4
93.750000; 4.96603E-3
99.609375; 1.11314E-2
105.468750; 6.19653E-3
111.328125; 1.96205E-4
117.187500; 1.29332E-4
123.046875; 1.20418E-4
128.906250; 1.26724E-4
134.765625; 1.19437E-4
140.625000; 1.20796E-4
146.484375; 1.40850E-4
152.343750; 1.49240E-4
158.203125; 1.19099E-4
164.062500; 1.13161E-4
169.921875; 1.11769E-4
175.781250; 1.04036E-4
181.640625; 1.09330E-4
187.500000; 1.11267E-4
193.359375; 6.73928E-4
199.218750; 1.64932E-3
205.078125; 1.02900E-3
210.937500; 1.43064E-4
216.796875; 1.06766E-4
222.656250; 1.19030E-4
228.515625; 1.30686E-4
234.375000; 1.23956E-4
240.234375; 1.21826E-4
246.093750; 1.46831E-4
251.953125; 1.49251E-4
257.812500; 1.13225E-4
263.671875; 1.12992E-4
269.531250; 1.07687E-4
275.390625; 1.07940E-4
281.250000; 1.15323E-4
287.109375; 1.16726E-4
292.968750; 1.45676E-4
298.828125; 2.68398E-4
304.687500; 2.11950E-4
310.546875; 1.25699E-4
316.406250; 1.13256E-4
322.265625; 1.04940E-4
328.125000; 1.04342E-4
333.984375; 1.12874E-4
339.843750; 1.10694E-4
345.703125; 1.38649E-4
351.562500; 1.69282E-4
357.421875; 1.28865E-4
363.281250; 1.22083E-4
369.140625; 1.21456E-4
375.000000; 1.10278E-4
380.859375; 9.87940E-5
386.718750; 9.78866E-5
392.578125; 1.73816E-4
398.437500; 4.90060E-4
404.296875; 3.77892E-4
410.156250; 1.16941E-4
416.015625; 1.13120E-4
421.875000; 1.09458E-4
427.734375; 1.10983E-4
433.593750; 1.16908E-4
439.453125; 1.12869E-4
445.312500; 1.23946E-4
451.171875; 1.35572E-4
457.031250; 1.15535E-4
462.890625; 1.19748E-4
468.750000; 1.14028E-4
474.609375; 1.01706E-4
480.468750; 1.14530E-4
486.328125; 1.29491E-4
492.187500; 1.42080E-4
498.046875; 3.39657E-4
503.906250; 2.85642E-4
509.765625; 1.11998E-4
515.625000; 1.04418E-4
521.484375; 1.00031E-4
527.343750; 1.18727E-4
533.203125; 1.23465E-4
539.062500; 1.16374E-4
544.921875; 1.21782E-4
550.781250; 1.09068E-4
556.640625; 9.44183E-5
562.500000; 1.05316E-4
568.359375; 1.12603E-4
574.218750; 1.13789E-4
580.078125; 1.02777E-4
585.937500; 1.14747E-4
591.796875; 1.12860E-4
597.656250; 1.21131E-4
603.515625; 1.13669E-4
609.375000; 1.06921E-4
615.234375; 1.07745E-4
621.093750; 1.05377E-4
626.953125; 1.06821E-4
632.812500; 1.13563E-4
638.671875; 1.12839E-4
644.531250; 1.26361E-4
650.390625; 1.42108E-4
656.250000; 1.32707E-4
662.109375; 1.20849E-4
667.968750; 1.10494E-4
673.828125; 1.09923E-4
679.687500; 1.11828E-4
685.546875; 1.11756E-4
691.406250; 1.13450E-4
697.265625; 2.16983E-4
703.125000; 2.27407E-4
708.984375; 1.16726E-4
714.843750; 1.14589E-4
720.703125; 1.13824E-4
726.562500; 1.33508E-4
732.421875; 1.19288E-4
738.281250; 1.13898E-4
744.140625; 1.24911E-4
750.000000; 1.55165E-4
755.859375; 1.26504E-4
761.718750; 1.18963E-4
767.578125; 1.20580E-4
773.437500; 1.23578E-4
779.296875; 1.28102E-4
785.156250; 1.20826E-4
791.015625; 1.38222E-4
796.875000; 1.66374E-4
802.734375; 2.08568E-4
808.593750; 1.53500E-4
814.453125; 1.56459E-4
820.312500; 1.80282E-4
826.171875; 1.60592E-4
832.031250; 1.92161E-4
837.890625; 1.96973E-4
843.750000; 2.26457E-4
849.609375; 2.55174E-4
855.468750; 2.81647E-4
861.328125; 2.98328E-4
867.187500; 3.24290E-4
873.046875; 3.83480E-4
878.906250; 4.40785E-4
884.765625; 4.83632E-4
890.625000; 5.71384E-4
896.484375; 7.32080E-4
902.343750; 7.32070E-4
908.203125; 1.00070E-3
914.062500; 1.17104E-3
919.921875; 1.44951E-3
925.781250; 1.81891E-3
931.640625; 2.33981E-3
937.500000; 3.04722E-3
943.359375; 4.11889E-3
949.218750; 5.71449E-3
955.078125; 8.30556E-3
960.937500; 1.26788E-2
966.796875; 2.08364E-2
972.656250; 3.78789E-2
978.515625; 8.05098E-2
984.375000; 2.25416E-1
990.234375; 1.23978E0
996.093750; 9.91826E0
1001.953125; 1.23978E1
1007.812500; 3.54225E0
1013.671875; 3.54193E-1
1019.531250; 1.09016E-1
1025.390625; 4.76749E-2
1031.250000; 2.51008E-2
1037.109375; 1.48311E-2
1042.968750; 9.48468E-3
1048.828125; 6.45825E-3
1054.687500; 4.56051E-3
1060.546875; 3.36191E-3
1066.406250; 2.53910E-3
1072.265625; 1.98967E-3
1078.125000; 1.55906E-3
1083.984375; 1.24658E-3
1089.843750; 1.03612E-3
1095.703125; 8.55964E-4
1101.562500; 7.10718E-4
1107.421875; 6.18513E-4
1113.281250; 5.14520E-4
1119.140625; 4.46126E-4
1125.000000; 3.91433E-4
1130.859375; 3.45114E-4
1136.718750; 3.13913E-4
1142.578125; 2.81878E-4
1148.437500; 2.43051E-4
1154.296875; 2.29182E-4
1160.156250; 2.05222E-4
1166.015625; 1.87019E-4
1171.875000; 1.88028E-4
1177.734375; 1.74002E-4
1183.593750; 1.46028E-4
1189.453125; 1.61193E-4
1195.312500; 1.41443E-4
1201.171875; 1.74617E-4
1207.031250; 1.39865E-4
1212.890625; 1.38920E-4
1218.750000; 1.42596E-4
1224.609375; 1.21615E-4
1230.468750; 1.25529E-4
1236.328125; 1.18732E-4
1242.187500; 1.24132E-4
1248.046875; 1.33341E-4
1253.906250; 1.33789E-4
1259.765625; 1.06727E-4
1265.625000; 1.06458E-4
1271.484375; 1.16544E-4
1277.343750; 1.19137E-4
1283.203125; 1.01662E-4
1289.062500; 1.08488E-4
1294.921875; 1.16029E-4
1300.781250; 1.17464E-4
1306.640625; 1.13801E-4
1312.500000; 1.11968E-4
1318.359375; 1.05138E-4
1324.218750; 1.15798E-4
1330.078125; 1.09975E-4
1335.937500; 1.07077E-4
1341.796875; 1.05727E-4
1347.656250; 1.02821E-4
1353.515625; 1.05447E-4
1359.375000; 1.03889E-4
1365.234375; 9.20647E-5
1371.093750; 1.10683E-4
1376.953125; 1.10626E-4
1382.812500; 1.06311E-4
1388.671875; 1.00089E-4
1394.531250; 1.05767E-4
1400.390625; 1.09008E-4
1406.250000; 1.01535E-4
1412.109375; 1.03719E-4
1417.968750; 1.05294E-4
1423.828125; 1.04179E-4
1429.687500; 1.10506E-4
1435.546875; 1.13469E-4
1441.406250; 1.04487E-4
1447.265625; 1.07474E-4
1453.125000; 1.15897E-4
1458.984375; 1.07098E-4
1464.843750; 1.12585E-4
1470.703125; 1.12465E-4
1476.562500; 1.03223E-4
1482.421875; 1.01182E-4
1488.281250; 9.67981E-5
1494.140625; 1.12491E-4
1500.000000; 1.15448E-4
1505.859375; 1.13200E-4
1511.718750; 1.07344E-4
1517.578125; 1.20209E-4
1523.437500; 1.07157E-4
1529.296875; 1.05868E-4
1535.156250; 1.04991E-4
1541.015625; 9.91107E-5
1546.875000; 9.98925E-5
1552.734375; 1.10544E-4
1558.593750; 1.07637E-4
1564.453125; 1.15022E-4
1570.312500; 1.03398E-4
1576.171875; 1.02413E-4
1582.031250; 1.03570E-4
1587.890625; 9.53861E-5
1593.750000; 1.03171E-4
1599.609375; 1.08582E-4
1605.468750; 1.04143E-4
1611.328125; 1.23362E-4
1617.187500; 1.01642E-4
1623.046875; 9.84258E-5
1628.906250; 9.24019E-5
1634.765625; 1.05971E-4
1640.625000; 1.14344E-4
1646.484375; 1.12920E-4
1652.343750; 1.10395E-4
1658.203125; 1.07776E-4
1664.062500; 1.05072E-4
1669.921875; 9.87881E-5
1675.781250; 1.01239E-4
1681.640625; 1.06752E-4
1687.500000; 1.10834E-4
1693.359375; 9.99292E-5
1699.218750; 1.14935E-4
1705.078125; 1.02233E-4
1710.937500; 1.20738E-4
1716.796875; 1.25197E-4
1722.656250; 9.90299E-5
1728.515625; 1.00401E-4
1734.375000; 9.66000E-5
1740.234375; 1.03462E-4
1746.093750; 1.08621E-4
1751.953125; 1.10321E-4
1757.812500; 1.03937E-4
1763.671875; 1.11257E-4
1769.531250; 1.14456E-4
1775.390625; 1.07623E-4
1781.250000; 1.09483E-4
1787.109375; 1.06000E-4
1792.968750; 9.92610E-5
1798.828125; 1.09194E-4
1804.687500; 1.03452E-4
1810.546875; 1.01333E-4
1816.406250; 1.08912E-4
1822.265625; 1.07518E-4
1828.125000; 1.06998E-4
1833.984375; 1.04085E-4
1839.843750; 9.51056E-5
1845.703125; 1.03304E-4
1851.562500; 1.01736E-4
1857.421875; 9.41747E-5
1863.281250; 1.11193E-4
1869.140625; 1.08769E-4
1875.000000; 1.10917E-4
1880.859375; 1.10178E-4
1886.718750; 1.12069E-4
1892.578125; 1.00529E-4
1898.437500; 1.05267E-4
1904.296875; 1.13619E-4
1910.156250; 1.05571E-4
1916.015625; 1.14247E-4
1921.875000; 1.07749E-4
1927.734375; 1.01586E-4
1933.593750; 1.09544E-4
1939.453125; 1.07573E-4
1945.312500; 9.88565E-5
1951.171875; 1.02953E-4
1957.031250; 1.14536E-4
1962.890625; 1.09965E-4
1968.750000; 9.62718E-5
1974.609375; 1.05754E-4
1980.468750; 1.01147E-4
1986.328125; 1.12835E-4
1992.187500; 3.95109E-4
1998.046875; 1.36130E-3
2003.906250; 1.10119E-3
2009.765625; 1.95645E-4
2015.625000; 1.16423E-4
2021.484375; 1.25303E-4
2027.343750; 1.14885E-4
2033.203125; 1.04882E-4
2039.062500; 1.07033E-4
2044.921875; 1.06217E-4
2050.781250; 1.00444E-4
2056.640625; 1.03611E-4
2062.500000; 1.11539E-4
2068.359375; 1.17170E-4
2074.218750; 1.12178E-4
2080.078125; 1.11895E-4
2085.937500; 1.15880E-4
2091.796875; 1.11398E-4
2097.656250; 1.07585E-4
2103.515625; 1.07086E-4
2109.375000; 9.97320E-5
2115.234375; 1.00277E-4
2121.093750; 1.02539E-4
2126.953125; 9.79240E-5
2132.812500; 1.03009E-4
2138.671875; 1.00554E-4
2144.531250; 1.18595E-4
2150.390625; 1.16135E-4
2156.250000; 9.83074E-5
2162.109375; 1.06674E-4
2167.968750; 1.13490E-4
2173.828125; 1.02927E-4
2179.687500; 9.76736E-5
2185.546875; 1.15445E-4
2191.406250; 1.08699E-4
2197.265625; 1.11169E-4
2203.125000; 1.11284E-4
2208.984375; 1.12075E-4
2214.843750; 1.09960E-4
2220.703125; 1.14959E-4
2226.562500; 1.10084E-4
2232.421875; 1.09892E-4
2238.281250; 1.13166E-4
2244.140625; 1.09359E-4
2250.000000; 1.10122E-4
2255.859375; 1.22298E-4
2261.718750; 1.13605E-4
2267.578125; 1.07332E-4
2273.437500; 9.16043E-5
2279.296875; 1.04398E-4
2285.156250; 1.08185E-4
2291.015625; 1.09441E-4
2296.875000; 1.03759E-4
2302.734375; 9.67938E-5
2308.593750; 9.93704E-5
2314.453125; 9.81532E-5
2320.312500; 1.01284E-4
2326.171875; 9.56609E-5
2332.031250; 1.04539E-4
2337.890625; 1.03976E-4
2343.750000; 1.06511E-4
2349.609375; 1.08049E-4
2355.468750; 1.10403E-4
2361.328125; 1.12874E-4
2367.187500; 1.14696E-4
2373.046875; 1.08233E-4
2378.906250; 1.15630E-4
2384.765625; 1.07615E-4
2390.625000; 9.98763E-5
2396.484375; 1.08275E-4
2402.343750; 1.13857E-4
2408.203125; 1.08786E-4
2414.062500; 1.07349E-4
2419.921875; 9.65594E-5
2425.781250; 9.94218E-5
2431.640625; 1.05775E-4
2437.500000; 9.94796E-5
2443.359375; 1.04957E-4
2449.218750; 1.06711E-4
2455.078125; 1.07330E-4
2460.937500; 1.09122E-4
2466.796875; 1.12234E-4
2472.656250; 1.12828E-4
2478.515625; 1.02898E-4
2484.375000; 1.00810E-4
2490.234375; 8.79176E-5
2496.093750; 9.64168E-5
2501.953125; 1.07337E-4
2507.812500; 1.13342E-4
2513.671875; 1.07468E-4
2519.531250; 1.01432E-4
2525.390625; 9.53454E-5
2531.250000; 9.71388E-5
2537.109375; 1.00870E-4
2542.968750; 1.02842E-4
2548.828125; 1.09450E-4
2554.687500; 1.05275E-4
2560.546875; 1.01913E-4
2566.406250; 1.02828E-4
2572.265625; 9.90303E-5
2578.125000; 9.96766E-5
2583.984375; 1.07890E-4
2589.843750; 1.17482E-4
2595.703125; 1.03557E-4
2601.562500; 1.17404E-4
2607.421875; 1.09656E-4
2613.281250; 1.02122E-4
2619.140625; 1.04750E-4
2625.000000; 1.05893E-4
2630.859375; 1.08694E-4
2636.718750; 1.19925E-4
2642.578125; 1.11767E-4
2648.437500; 1.09715E-4
2654.296875; 1.11982E-4
2660.156250; 1.22686E-4
2666.015625; 1.15164E-4
2671.875000; 1.17083E-4
2677.734375; 1.08438E-4
2683.593750; 9.98559E-5
2689.453125; 1.07900E-4
2695.312500; 1.03519E-4
2701.171875; 9.91119E-5
2707.031250; 9.82988E-5
2712.890625; 1.06476E-4
2718.750000; 1.14346E-4
2724.609375; 1.06435E-4
2730.468750; 1.04938E-4
2736.328125; 9.73271E-5
2742.187500; 1.02247E-4
2748.046875; 1.02703E-4
2753.906250; 1.10805E-4
2759.765625; 1.04964E-4
2765.625000; 1.04694E-4
2771.484375; 1.07195E-4
2777.343750; 1.13096E-4
2783.203125; 1.21820E-4
2789.062500; 1.15363E-4
2794.921875; 1.08866E-4
2800.781250; 1.08973E-4
2806.640625; 1.09063E-4
2812.500000; 1.07317E-4
2818.359375; 1.08584E-4
2824.218750; 1.10506E-4
2830.078125; 1.15234E-4
2835.937500; 1.00623E-4
2841.796875; 1.11782E-4
2847.656250; 1.06581E-4
2853.515625; 1.09754E-4
2859.375000; 1.13609E-4
2865.234375; 1.03223E-4
2871.093750; 1.02778E-4
2876.953125; 1.08656E-4
2882.812500; 1.08032E-4
2888.671875; 1.18405E-4
2894.531250; 1.05796E-4
2900.390625; 1.00897E-4
2906.250000; 1.07063E-4
2912.109375; 1.18323E-4
2917.968750; 1.22123E-4
2923.828125; 1.13344E-4
2929.687500; 1.00677E-4
2935.546875; 9.24793E-5
2941.406250; 9.96421E-5
2947.265625; 9.84995E-5
2953.125000; 9.87244E-5
2958.984375; 9.56526E-5
2964.843750; 9.35732E-5
2970.703125; 1.02696E-4
2976.562500; 1.07176E-4
2982.421875; 1.04617E-4
2988.281250; 1.03277E-4
2994.140625; 1.18484E-4
3000.000000; 1.46638E-4
3005.859375; 1.24899E-4
3011.718750; 1.12764E-4
3017.578125; 1.01919E-4
3023.437500; 1.08106E-4
3029.296875; 1.02282E-4
3035.156250; 1.02108E-4
3041.015625; 1.01887E-4
3046.875000; 9.94863E-5
3052.734375; 9.82254E-5
3058.593750; 1.08410E-4
3064.453125; 1.03086E-4
3070.312500; 1.08718E-4
3076.171875; 1.09212E-4
3082.031250; 9.98996E-5
3087.890625; 1.05810E-4
3093.750000; 1.12691E-4
3099.609375; 1.01173E-4
3105.468750; 9.99636E-5
3111.328125; 9.96614E-5
3117.187500; 1.09222E-4
3123.046875; 1.02222E-4
3128.906250; 9.96270E-5
3134.765625; 1.05922E-4
3140.625000; 1.09185E-4
3146.484375; 1.06253E-4
3152.343750; 1.10192E-4
3158.203125; 1.06709E-4
3164.062500; 1.02756E-4
3169.921875; 1.09085E-4
3175.781250; 1.08261E-4
3181.640625; 1.01836E-4
3187.500000; 9.23965E-5
3193.359375; 1.04708E-4
3199.218750; 1.12316E-4
3205.078125; 1.02787E-4
3210.937500; 1.04161E-4
3216.796875; 9.97404E-5
3222.656250; 1.10561E-4
3228.515625; 1.11592E-4
3234.375000; 1.00246E-4
3240.234375; 1.10820E-4
3246.093750; 1.06210E-4
3251.953125; 9.61625E-5
3257.812500; 1.11150E-4
3263.671875; 1.17201E-4
3269.531250; 1.12737E-4
3275.390625; 1.18091E-4
3281.250000; 1.11744E-4
3287.109375; 1.03522E-4
3292.968750; 1.10421E-4
3298.828125; 1.25778E-4
3304.687500; 1.30208E-4
3310.546875; 1.17788E-4
3316.406250; 1.10858E-4
3322.265625; 1.07826E-4
3328.125000; 1.01087E-4
3333.984375; 1.07343E-4
3339.843750; 1.06327E-4
3345.703125; 1.04416E-4
3351.562500; 1.03546E-4
3357.421875; 1.01012E-4
3363.281250; 1.03964E-4
3369.140625; 9.83670E-5
3375.000000; 1.10805E-4
3380.859375; 1.12706E-4
3386.718750; 9.67391E-5
3392.578125; 1.05712E-4
3398.437500; 1.11942E-4
3404.296875; 1.10616E-4
3410.156250; 1.05669E-4
3416.015625; 1.02564E-4
3421.875000; 1.11508E-4
3427.734375; 1.10728E-4
3433.593750; 1.20312E-4
3439.453125; 1.17031E-4
3445.312500; 1.08457E-4
3451.171875; 1.01872E-4
3457.031250; 1.07440E-4
3462.890625; 9.54369E-5
3468.750000; 9.51274E-5
3474.609375; 9.73649E-5
3480.468750; 1.12973E-4
3486.328125; 1.12201E-4
3492.187500; 1.04396E-4
3498.046875; 1.07364E-4
3503.906250; 1.10880E-4
3509.765625; 1.07676E-4
3515.625000; 1.05975E-4
3521.484375; 1.09748E-4
3527.343750; 1.04665E-4
3533.203125; 1.05350E-4
3539.062500; 1.03787E-4
3544.921875; 1.00102E-4
3550.781250; 9.97729E-5
3556.640625; 1.02000E-4
3562.500000; 1.08750E-4
3568.359375; 1.15951E-4
3574.218750; 1.18097E-4
3580.078125; 1.05866E-4
3585.937500; 1.04560E-4
3591.796875; 1.05733E-4
3597.656250; 1.05565E-4
3603.515625; 1.06424E-4
3609.375000; 1.10651E-4
3615.234375; 1.13314E-4
3621.093750; 1.08035E-4
3626.953125; 1.06477E-4
3632.812500; 1.06065E-4
3638.671875; 9.45300E-5
3644.531250; 9.90134E-5
3650.390625; 1.03343E-4
3656.250000; 1.02317E-4
3662.109375; 1.00364E-4
3667.968750; 1.08451E-4
3673.828125; 1.04814E-4
3679.687500; 1.07611E-4
3685.546875; 1.11704E-4
3691.406250; 1.09141E-4
3697.265625; 1.09623E-4
3703.125000; 1.09213E-4
3708.984375; 1.01059E-4
3714.843750; 1.05148E-4
3720.703125; 1.06177E-4
3726.562500; 1.04336E-4
3732.421875; 1.10014E-4
3738.281250; 1.20449E-4
3744.140625; 1.16852E-4
3750.000000; 1.08225E-4
3755.859375; 1.04952E-4
3761.718750; 1.07549E-4
3767.578125; 1.00824E-4
3773.437500; 9.71464E-5
3779.296875; 1.01144E-4
3785.156250; 9.59465E-5
3791.015625; 1.02822E-4
3796.875000; 1.02946E-4
3802.734375; 1.04988E-4
3808.593750; 1.07721E-4
3814.453125; 9.53875E-5
3820.312500; 1.02106E-4
3826.171875; 1.05220E-4
3832.031250; 1.16543E-4
3837.890625; 1.14573E-4
3843.750000; 1.01674E-4
3849.609375; 9.61698E-5
3855.468750; 1.05071E-4
3861.328125; 1.03892E-4
3867.187500; 1.07211E-4
3873.046875; 1.06301E-4
3878.906250; 9.99916E-5
3884.765625; 1.03210E-4
3890.625000; 9.78454E-5
3896.484375; 1.05044E-4
3902.343750; 1.07507E-4
3908.203125; 9.16668E-5
3914.062500; 1.06599E-4
3919.921875; 1.09354E-4
3925.781250; 1.14638E-4
3931.640625; 1.15449E-4
3937.500000; 1.03668E-4
3943.359375; 9.40386E-5
3949.218750; 1.07824E-4
3955.078125; 1.06520E-4
3960.937500; 9.90567E-5
3966.796875; 1.02104E-4
3972.656250; 1.05414E-4
3978.515625; 1.04558E-4
3984.375000; 9.90597E-5
3990.234375; 8.48729E-5
3996.093750; 1.05958E-4
4001.953125; 1.12136E-4
4007.812500; 1.00582E-4
4013.671875; 9.92405E-5
4019.531250; 8.77623E-5
4025.390625; 9.45594E-5
4031.250000; 1.04318E-4
4037.109375; 1.06816E-4
4042.968750; 1.00306E-4
4048.828125; 1.00435E-4
4054.687500; 1.07133E-4
4060.546875; 9.58328E-5
4066.406250; 1.08523E-4
4072.265625; 1.12161E-4
4078.125000; 1.06118E-4
4083.984375; 9.90783E-5
4089.843750; 1.07360E-4
4095.703125; 1.04664E-4
4101.562500; 1.05871E-4
4107.421875; 1.07831E-4
4113.281250; 9.91650E-5
4119.140625; 1.07076E-4
4125.000000; 1.13134E-4
4130.859375; 9.91665E-5
4136.718750; 1.00480E-4
4142.578125; 9.60587E-5
4148.437500; 9.63655E-5
4154.296875; 1.06940E-4
4160.156250; 1.11141E-4
4166.015625; 9.46283E-5
4171.875000; 9.14122E-5
4177.734375; 1.05059E-4
4183.593750; 1.06444E-4
4189.453125; 1.04614E-4
4195.312500; 1.04352E-4
4201.171875; 1.09086E-4
4207.031250; 1.10482E-4
4212.890625; 1.10688E-4
4218.750000; 1.09407E-4
4224.609375; 1.02832E-4
4230.468750; 1.06446E-4
4236.328125; 1.05788E-4
4242.187500; 1.02796E-4
4248.046875; 1.00132E-4
4253.906250; 1.02686E-4
4259.765625; 1.09954E-4
4265.625000; 1.15930E-4
4271.484375; 1.11472E-4
4277.343750; 1.07363E-4
4283.203125; 1.05179E-4
4289.062500; 9.82530E-5
4294.921875; 1.00265E-4
4300.781250; 1.05688E-4
4306.640625; 9.85125E-5
4312.500000; 1.10093E-4
4318.359375; 9.97826E-5
4324.218750; 9.31100E-5
4330.078125; 1.02394E-4
4335.937500; 1.01883E-4
4341.796875; 1.07115E-4
4347.656250; 1.10129E-4
4353.515625; 1.03687E-4
4359.375000; 9.49447E-5
4365.234375; 9.83724E-5
4371.093750; 1.02751E-4
4376.953125; 9.56604E-5
4382.812500; 1.01837E-4
4388.671875; 1.02842E-4
4394.531250; 1.06798E-4
4400.390625; 9.79777E-5
4406.250000; 1.06869E-4
4412.109375; 1.10138E-4
4417.968750; 1.18114E-4
4423.828125; 1.07901E-4
4429.687500; 1.05776E-4
4435.546875; 1.05062E-4
4441.406250; 1.01100E-4
4447.265625; 1.01544E-4
4453.125000; 1.15001E-4
4458.984375; 1.13727E-4
4464.843750; 1.17925E-4
4470.703125; 1.15279E-4
4476.562500; 1.02823E-4
4482.421875; 1.02368E-4
4488.281250; 1.07421E-4
4494.140625; 1.04594E-4
4500.000000; 9.27477E-5
4505.859375; 1.03432E-4
4511.718750; 1.08184E-4
4517.578125; 1.02478E-4
4523.437500; 9.74522E-5
4529.296875; 9.67756E-5
4535.156250; 1.05303E-4
4541.015625; 1.04278E-4
4546.875000; 1.04586E-4
4552.734375; 9.32855E-5
4558.593750; 9.77448E-5
4564.453125; 1.11074E-4
4570.312500; 1.02813E-4
4576.171875; 1.07587E-4
4582.031250; 1.14283E-4
4587.890625; 1.13921E-4
4593.750000; 1.08272E-4
4599.609375; 1.08067E-4
4605.468750; 1.10536E-4
4611.328125; 1.09221E-4
4617.187500; 1.01896E-4
4623.046875; 9.96950E-5
4628.906250; 1.06515E-4
4634.765625; 1.03738E-4
4640.625000; 1.09523E-4
4646.484375; 1.15544E-4
4652.343750; 1.06699E-4
4658.203125; 1.02812E-4
4664.062500; 1.07123E-4
