* Measurement data measured by REW V5.31.3
* Source: PCM: default, no input selected, 2, volume: no control
* Format: 8192-point spectrum using Hann window and exponential averaging 0.97 
* Dated: Mar 9, 2025 1:10:04 PM
* REW Settings:
*  C-weighting compensation: Off
*  Target level: 75.0 dB
* Note: OSDEHA MU-OUTPUT; 8192-point spectrum using Hann window and exponential averaging 0.97  Input RMS 1.779 V 1.779 VC, 1.779 VA 1.779 V 22 - 22k UNW 959.5 uV >22k Distortion at 1,000.0 Hz, -35.00 dBFS: Gain: 29.68 dB THD: 0.028 % based on 21 harmonics  [0..22800 Hz] HHD: 0.022 %  [10 .. 22] N: 0.80 %  [0..22800 Hz] N+D: 4.397 mV A THD+N: 0.80 %  [0..22800 Hz] SNR: 42.0 dB ENOB: 13.0 bits 2nd harmonic 0.0063 % 155 deg 3rd harmonic 0.0060 % -34 deg 4th harmonic 0.0064 % -148 deg 5th harmonic 0.0062 % -79 deg 6th harmonic 0.0062 % 126 deg 7th harmonic 0.0061 % 34 deg 8th harmonic 0.0062 % 103 deg 9th harmonic 0.0063 % -17 deg 
* Measurement: OSDEHA MU-OUT 1.78V
* Smoothing: None
* Frequency Step: 5.859375 Hz
* Start Frequency: 5.859375 Hz
*
* Freq(Hz); V(V)
5.859375; 2.20241E-4
11.718750; 3.12074E-4
17.578125; 3.23469E-4
23.437500; 2.67938E-4
29.296875; 2.31752E-4
35.156250; 2.17608E-4
41.015625; 2.17893E-4
46.875000; 3.11878E-4
52.734375; 3.38394E-4
58.593750; 2.12413E-4
64.453125; 1.88478E-4
70.312500; 1.66835E-4
76.171875; 1.53324E-4
82.031250; 1.73789E-4
87.890625; 2.13600E-4
93.750000; 5.88002E-3
99.609375; 1.29338E-2
105.468750; 7.07685E-3
111.328125; 2.23854E-4
117.187500; 1.87929E-4
123.046875; 1.53689E-4
128.906250; 1.43674E-4
134.765625; 1.42073E-4
140.625000; 1.69796E-4
146.484375; 1.86777E-4
152.343750; 1.61834E-4
158.203125; 1.56250E-4
164.062500; 1.61896E-4
169.921875; 1.56523E-4
175.781250; 1.46794E-4
181.640625; 1.42615E-4
187.500000; 1.49097E-4
193.359375; 5.77685E-4
199.218750; 1.37586E-3
205.078125; 8.36367E-4
210.937500; 1.47618E-4
216.796875; 1.40426E-4
222.656250; 1.56692E-4
228.515625; 1.53816E-4
234.375000; 1.43676E-4
240.234375; 1.28803E-4
246.093750; 1.37161E-4
251.953125; 1.62557E-4
257.812500; 1.49812E-4
263.671875; 1.50058E-4
269.531250; 1.42372E-4
275.390625; 1.40961E-4
281.250000; 1.39857E-4
287.109375; 1.42292E-4
292.968750; 1.72976E-4
298.828125; 2.96490E-4
304.687500; 2.15404E-4
310.546875; 1.33285E-4
316.406250; 1.36057E-4
322.265625; 1.31276E-4
328.125000; 1.13621E-4
333.984375; 1.12168E-4
339.843750; 1.34215E-4
345.703125; 1.36179E-4
351.562500; 1.27176E-4
357.421875; 1.35338E-4
363.281250; 1.39649E-4
369.140625; 1.28189E-4
375.000000; 1.35285E-4
380.859375; 1.19815E-4
386.718750; 1.11816E-4
392.578125; 1.60681E-4
398.437500; 2.80824E-4
404.296875; 2.12411E-4
410.156250; 1.19901E-4
416.015625; 1.15171E-4
421.875000; 1.21099E-4
427.734375; 1.23272E-4
433.593750; 1.25299E-4
439.453125; 1.24261E-4
445.312500; 1.33588E-4
451.171875; 1.40444E-4
457.031250; 1.26464E-4
462.890625; 1.15063E-4
468.750000; 1.33531E-4
474.609375; 1.21426E-4
480.468750; 1.11422E-4
486.328125; 1.14868E-4
492.187500; 1.21148E-4
498.046875; 1.47045E-4
503.906250; 1.42453E-4
509.765625; 1.15472E-4
515.625000; 1.10343E-4
521.484375; 1.26553E-4
527.343750; 1.24911E-4
533.203125; 1.23554E-4
539.062500; 1.20928E-4
544.921875; 1.16012E-4
550.781250; 1.30314E-4
556.640625; 1.29352E-4
562.500000; 1.24613E-4
568.359375; 1.24822E-4
574.218750; 1.15258E-4
580.078125; 1.17334E-4
585.937500; 1.11608E-4
591.796875; 1.08627E-4
597.656250; 1.29333E-4
603.515625; 1.20752E-4
609.375000; 1.13872E-4
615.234375; 1.23641E-4
621.093750; 1.16847E-4
626.953125; 1.13213E-4
632.812500; 1.21495E-4
638.671875; 1.25972E-4
644.531250; 1.29118E-4
650.390625; 1.16193E-4
656.250000; 1.14863E-4
662.109375; 1.17065E-4
667.968750; 1.32934E-4
673.828125; 1.22594E-4
679.687500; 1.07822E-4
685.546875; 1.08214E-4
691.406250; 1.08844E-4
697.265625; 1.16559E-4
703.125000; 1.09625E-4
708.984375; 1.24637E-4
714.843750; 1.22567E-4
720.703125; 1.14774E-4
726.562500; 1.18729E-4
732.421875; 1.25152E-4
738.281250; 1.30508E-4
744.140625; 1.24673E-4
750.000000; 1.19823E-4
755.859375; 1.20199E-4
761.718750; 1.22648E-4
767.578125; 1.16968E-4
773.437500; 1.16318E-4
779.296875; 1.18556E-4
785.156250; 1.11082E-4
791.015625; 1.12377E-4
796.875000; 1.08897E-4
802.734375; 1.24759E-4
808.593750; 1.27102E-4
814.453125; 1.13284E-4
820.312500; 1.17467E-4
826.171875; 1.18831E-4
832.031250; 1.20605E-4
837.890625; 1.23136E-4
843.750000; 1.16246E-4
849.609375; 1.18545E-4
855.468750; 1.19721E-4
861.328125; 1.15944E-4
867.187500; 1.26868E-4
873.046875; 1.27838E-4
878.906250; 1.32211E-4
884.765625; 1.39433E-4
890.625000; 1.33071E-4
896.484375; 1.39450E-4
902.343750; 1.80801E-4
908.203125; 1.75130E-4
914.062500; 1.84542E-4
919.921875; 2.22585E-4
925.781250; 2.73026E-4
931.640625; 3.26621E-4
937.500000; 4.28433E-4
943.359375; 5.59684E-4
949.218750; 7.70496E-4
955.078125; 1.11848E-3
960.937500; 1.69307E-3
966.796875; 2.78288E-3
972.656250; 5.05958E-3
978.515625; 1.07554E-2
984.375000; 3.00815E-2
990.234375; 1.65511E-1
996.093750; 1.32402E0
1001.953125; 1.65502E0
1007.812500; 4.72865E-1
1013.671875; 4.72797E-2
1019.531250; 1.45596E-2
1025.390625; 6.35402E-3
1031.250000; 3.36157E-3
1037.109375; 1.98786E-3
1042.968750; 1.26323E-3
1048.828125; 8.70551E-4
1054.687500; 6.12185E-4
1060.546875; 4.67085E-4
1066.406250; 3.71158E-4
1072.265625; 2.88558E-4
1078.125000; 2.33641E-4
1083.984375; 1.97377E-4
1089.843750; 1.81789E-4
1095.703125; 1.53546E-4
1101.562500; 1.61896E-4
1107.421875; 1.40239E-4
1113.281250; 1.37504E-4
1119.140625; 1.32643E-4
1125.000000; 1.38063E-4
1130.859375; 1.21085E-4
1136.718750; 1.16568E-4
1142.578125; 1.12322E-4
1148.437500; 1.23407E-4
1154.296875; 1.15337E-4
1160.156250; 1.04571E-4
1166.015625; 1.14473E-4
1171.875000; 1.18802E-4
1177.734375; 1.16444E-4
1183.593750; 1.12127E-4
1189.453125; 1.11478E-4
1195.312500; 1.23601E-4
1201.171875; 1.21201E-4
1207.031250; 1.24191E-4
1212.890625; 1.17154E-4
1218.750000; 1.17787E-4
1224.609375; 1.17971E-4
1230.468750; 1.25154E-4
1236.328125; 1.22241E-4
1242.187500; 1.22656E-4
1248.046875; 1.27299E-4
1253.906250; 1.24812E-4
1259.765625; 1.11362E-4
1265.625000; 1.19087E-4
1271.484375; 1.18304E-4
1277.343750; 1.02874E-4
1283.203125; 1.12844E-4
1289.062500; 1.23227E-4
1294.921875; 1.19589E-4
1300.781250; 1.23120E-4
1306.640625; 1.17260E-4
1312.500000; 1.10557E-4
1318.359375; 1.15064E-4
1324.218750; 1.09633E-4
1330.078125; 1.13377E-4
1335.937500; 1.08571E-4
1341.796875; 1.15378E-4
1347.656250; 1.14622E-4
1353.515625; 1.13728E-4
1359.375000; 1.19238E-4
1365.234375; 1.24503E-4
1371.093750; 1.25122E-4
1376.953125; 1.20753E-4
1382.812500; 1.16266E-4
1388.671875; 1.17852E-4
1394.531250; 1.17416E-4
1400.390625; 1.17586E-4
1406.250000; 1.17673E-4
1412.109375; 1.09149E-4
1417.968750; 1.03480E-4
1423.828125; 1.05144E-4
1429.687500; 1.06456E-4
1435.546875; 1.09390E-4
1441.406250; 1.10836E-4
1447.265625; 1.10045E-4
1453.125000; 1.16030E-4
1458.984375; 1.12352E-4
1464.843750; 1.17723E-4
1470.703125; 1.04762E-4
1476.562500; 9.82864E-5
1482.421875; 1.09811E-4
1488.281250; 1.14073E-4
1494.140625; 1.21276E-4
1500.000000; 1.21088E-4
1505.859375; 1.19788E-4
1511.718750; 1.15112E-4
1517.578125; 1.06341E-4
1523.437500; 1.03641E-4
1529.296875; 1.06908E-4
1535.156250; 1.15697E-4
1541.015625; 1.09847E-4
1546.875000; 1.06486E-4
1552.734375; 1.22247E-4
1558.593750; 1.13892E-4
1564.453125; 1.10993E-4
1570.312500; 1.11947E-4
1576.171875; 1.13498E-4
1582.031250; 1.10215E-4
1587.890625; 1.19282E-4
1593.750000; 1.11486E-4
1599.609375; 1.11551E-4
1605.468750; 1.19400E-4
1611.328125; 1.15430E-4
1617.187500; 1.14395E-4
1623.046875; 1.21507E-4
1628.906250; 1.21421E-4
1634.765625; 1.12685E-4
1640.625000; 1.25375E-4
1646.484375; 1.23487E-4
1652.343750; 1.19658E-4
1658.203125; 1.27985E-4
1664.062500; 1.20968E-4
1669.921875; 1.10812E-4
1675.781250; 1.10138E-4
1681.640625; 1.13713E-4
1687.500000; 1.07885E-4
1693.359375; 1.16887E-4
1699.218750; 1.30127E-4
1705.078125; 1.25361E-4
1710.937500; 1.21741E-4
1716.796875; 1.21614E-4
1722.656250; 1.07214E-4
1728.515625; 1.00716E-4
1734.375000; 1.09603E-4
1740.234375; 1.11552E-4
1746.093750; 1.13170E-4
1751.953125; 9.99654E-5
1757.812500; 1.16326E-4
1763.671875; 1.25435E-4
1769.531250; 1.24979E-4
1775.390625; 1.25745E-4
1781.250000; 1.14029E-4
1787.109375; 1.04922E-4
1792.968750; 1.09002E-4
1798.828125; 1.06095E-4
1804.687500; 1.15426E-4
1810.546875; 1.18973E-4
1816.406250; 1.12853E-4
1822.265625; 1.10813E-4
1828.125000; 1.15457E-4
1833.984375; 1.17315E-4
1839.843750; 1.17529E-4
1845.703125; 1.16564E-4
1851.562500; 1.09914E-4
1857.421875; 1.14161E-4
1863.281250; 1.07690E-4
1869.140625; 1.05115E-4
1875.000000; 1.04695E-4
1880.859375; 1.05386E-4
1886.718750; 1.08971E-4
1892.578125; 1.15260E-4
1898.437500; 1.22938E-4
1904.296875; 1.23035E-4
1910.156250; 1.11318E-4
1916.015625; 1.25173E-4
1921.875000; 1.25942E-4
1927.734375; 1.17301E-4
1933.593750; 1.01456E-4
1939.453125; 9.30572E-5
1945.312500; 1.06837E-4
1951.171875; 1.05542E-4
1957.031250; 1.00682E-4
1962.890625; 1.15062E-4
1968.750000; 1.23815E-4
1974.609375; 1.11780E-4
1980.468750; 1.06589E-4
1986.328125; 1.12349E-4
1992.187500; 1.09594E-4
1998.046875; 1.01566E-4
2003.906250; 1.18139E-4
2009.765625; 1.22735E-4
2015.625000; 1.14912E-4
2021.484375; 1.08665E-4
2027.343750; 1.16137E-4
2033.203125; 1.20862E-4
2039.062500; 1.17516E-4
2044.921875; 9.88630E-5
2050.781250; 1.06109E-4
2056.640625; 1.03434E-4
2062.500000; 1.03780E-4
2068.359375; 1.04698E-4
2074.218750; 1.07331E-4
2080.078125; 1.13858E-4
2085.937500; 1.17957E-4
2091.796875; 1.03932E-4
2097.656250; 1.10748E-4
2103.515625; 1.11428E-4
2109.375000; 1.23982E-4
2115.234375; 1.19693E-4
2121.093750; 1.12715E-4
2126.953125; 1.10255E-4
2132.812500; 1.07583E-4
2138.671875; 1.14090E-4
2144.531250; 1.09650E-4
2150.390625; 1.02365E-4
2156.250000; 1.00824E-4
2162.109375; 9.85371E-5
2167.968750; 1.04759E-4
2173.828125; 1.15318E-4
2179.687500; 1.17739E-4
2185.546875; 1.21977E-4
2191.406250; 1.18698E-4
2197.265625; 1.14530E-4
2203.125000; 1.13807E-4
2208.984375; 1.20933E-4
2214.843750; 1.08653E-4
2220.703125; 1.26307E-4
2226.562500; 1.16012E-4
2232.421875; 1.07529E-4
2238.281250; 1.13966E-4
2244.140625; 1.06695E-4
2250.000000; 1.16463E-4
2255.859375; 1.21267E-4
2261.718750; 1.16169E-4
2267.578125; 1.15829E-4
2273.437500; 1.15410E-4
2279.296875; 1.00552E-4
2285.156250; 1.02977E-4
2291.015625; 1.06386E-4
2296.875000; 1.07661E-4
2302.734375; 1.07857E-4
2308.593750; 1.08604E-4
2314.453125; 1.12278E-4
2320.312500; 1.22298E-4
2326.171875; 1.08178E-4
2332.031250; 9.99966E-5
2337.890625; 1.09160E-4
2343.750000; 1.06578E-4
2349.609375; 1.10816E-4
2355.468750; 1.15907E-4
2361.328125; 1.08820E-4
2367.187500; 1.01645E-4
2373.046875; 1.04475E-4
2378.906250; 1.16958E-4
2384.765625; 1.00402E-4
2390.625000; 1.06201E-4
2396.484375; 1.14929E-4
2402.343750; 1.14456E-4
2408.203125; 1.08892E-4
2414.062500; 1.10802E-4
2419.921875; 1.13679E-4
2425.781250; 1.16561E-4
2431.640625; 1.13792E-4
2437.500000; 1.15506E-4
2443.359375; 1.13260E-4
2449.218750; 1.24833E-4
2455.078125; 1.18668E-4
2460.937500; 1.10334E-4
2466.796875; 1.13465E-4
2472.656250; 1.14709E-4
2478.515625; 1.21874E-4
2484.375000; 1.26835E-4
2490.234375; 1.27872E-4
2496.093750; 1.24421E-4
2501.953125; 1.10958E-4
2507.812500; 9.94817E-5
2513.671875; 1.05738E-4
2519.531250; 1.21429E-4
2525.390625; 1.14963E-4
2531.250000; 9.88760E-5
2537.109375; 9.95116E-5
2542.968750; 1.14897E-4
2548.828125; 1.25282E-4
2554.687500; 1.16486E-4
2560.546875; 1.08145E-4
2566.406250; 1.13028E-4
2572.265625; 1.06730E-4
2578.125000; 1.09816E-4
2583.984375; 1.09751E-4
2589.843750; 1.16576E-4
2595.703125; 1.22021E-4
2601.562500; 1.12253E-4
2607.421875; 1.11380E-4
2613.281250; 1.09322E-4
2619.140625; 1.08676E-4
2625.000000; 1.07579E-4
2630.859375; 1.00898E-4
2636.718750; 9.91085E-5
2642.578125; 9.55317E-5
2648.437500; 1.18527E-4
2654.296875; 1.17365E-4
2660.156250; 1.11350E-4
2666.015625; 1.03473E-4
2671.875000; 1.11532E-4
2677.734375; 1.04697E-4
2683.593750; 1.14577E-4
2689.453125; 1.09203E-4
2695.312500; 1.10241E-4
2701.171875; 1.02931E-4
2707.031250; 1.09874E-4
2712.890625; 1.09774E-4
2718.750000; 1.05406E-4
2724.609375; 1.06536E-4
2730.468750; 1.11142E-4
2736.328125; 1.09142E-4
2742.187500; 1.06803E-4
2748.046875; 1.21857E-4
2753.906250; 1.21128E-4
2759.765625; 1.10317E-4
2765.625000; 1.02627E-4
2771.484375; 1.04290E-4
2777.343750; 9.92737E-5
2783.203125; 1.17685E-4
2789.062500; 1.17369E-4
2794.921875; 1.07360E-4
2800.781250; 1.13436E-4
2806.640625; 1.21076E-4
2812.500000; 1.13548E-4
2818.359375; 1.07196E-4
2824.218750; 1.05689E-4
2830.078125; 1.04982E-4
2835.937500; 1.17782E-4
2841.796875; 1.15558E-4
2847.656250; 1.08498E-4
2853.515625; 1.16982E-4
2859.375000; 1.20357E-4
2865.234375; 1.12994E-4
2871.093750; 1.04782E-4
2876.953125; 1.05913E-4
2882.812500; 1.08045E-4
2888.671875; 1.17568E-4
2894.531250; 1.14594E-4
2900.390625; 1.19341E-4
2906.250000; 1.09266E-4
2912.109375; 9.12209E-5
2917.968750; 9.89507E-5
2923.828125; 1.12611E-4
2929.687500; 1.09160E-4
2935.546875; 1.09305E-4
2941.406250; 1.06954E-4
2947.265625; 1.08557E-4
2953.125000; 1.17672E-4
2958.984375; 1.24698E-4
2964.843750; 1.24630E-4
2970.703125; 1.10105E-4
2976.562500; 1.07682E-4
2982.421875; 1.11813E-4
2988.281250; 1.09820E-4
2994.140625; 1.03936E-4
3000.000000; 1.02847E-4
3005.859375; 1.06828E-4
3011.718750; 1.05466E-4
3017.578125; 1.04580E-4
3023.437500; 1.01782E-4
3029.296875; 9.93006E-5
3035.156250; 1.06573E-4
3041.015625; 1.15717E-4
3046.875000; 1.16183E-4
3052.734375; 1.15088E-4
3058.593750; 1.14423E-4
3064.453125; 1.01571E-4
3070.312500; 1.04541E-4
3076.171875; 1.07775E-4
3082.031250; 1.09488E-4
3087.890625; 1.10831E-4
3093.750000; 9.56710E-5
3099.609375; 9.01259E-5
3105.468750; 1.00974E-4
3111.328125; 1.11575E-4
3117.187500; 1.13741E-4
3123.046875; 1.25620E-4
3128.906250; 1.23584E-4
3134.765625; 1.06208E-4
3140.625000; 1.00387E-4
3146.484375; 1.04990E-4
3152.343750; 1.12363E-4
3158.203125; 1.13945E-4
3164.062500; 1.02869E-4
3169.921875; 1.14255E-4
3175.781250; 1.07787E-4
3181.640625; 1.13165E-4
3187.500000; 1.07471E-4
3193.359375; 1.09500E-4
3199.218750; 1.11711E-4
3205.078125; 1.05465E-4
3210.937500; 1.05565E-4
3216.796875; 1.02856E-4
3222.656250; 9.46773E-5
3228.515625; 1.06197E-4
3234.375000; 1.16912E-4
3240.234375; 1.14906E-4
3246.093750; 1.13578E-4
3251.953125; 1.26098E-4
3257.812500; 1.18711E-4
3263.671875; 1.09304E-4
3269.531250; 1.09079E-4
3275.390625; 1.20213E-4
3281.250000; 1.10612E-4
3287.109375; 1.05636E-4
3292.968750; 1.08046E-4
3298.828125; 1.11281E-4
3304.687500; 1.12860E-4
3310.546875; 1.15406E-4
3316.406250; 1.12948E-4
3322.265625; 9.73121E-5
3328.125000; 1.03919E-4
3333.984375; 1.07796E-4
3339.843750; 1.04663E-4
3345.703125; 9.66120E-5
3351.562500; 1.11916E-4
3357.421875; 1.08116E-4
3363.281250; 1.04677E-4
3369.140625; 1.09989E-4
3375.000000; 1.06635E-4
3380.859375; 1.07328E-4
3386.718750; 1.08918E-4
3392.578125; 1.10745E-4
3398.437500; 1.17123E-4
3404.296875; 1.16315E-4
3410.156250; 1.15907E-4
3416.015625; 1.06820E-4
3421.875000; 1.12300E-4
3427.734375; 1.15724E-4
3433.593750; 1.16733E-4
3439.453125; 1.14677E-4
3445.312500; 1.11216E-4
3451.171875; 1.13692E-4
3457.031250; 1.16649E-4
3462.890625; 1.05917E-4
3468.750000; 1.04102E-4
3474.609375; 1.00576E-4
3480.468750; 1.03304E-4
3486.328125; 1.12464E-4
3492.187500; 1.12262E-4
3498.046875; 1.09382E-4
3503.906250; 1.15090E-4
3509.765625; 1.12130E-4
3515.625000; 1.04070E-4
3521.484375; 1.10488E-4
3527.343750; 1.23680E-4
3533.203125; 1.20996E-4
3539.062500; 1.14626E-4
3544.921875; 1.06622E-4
3550.781250; 1.02798E-4
3556.640625; 9.92141E-5
3562.500000; 1.06356E-4
3568.359375; 1.03328E-4
3574.218750; 1.07638E-4
3580.078125; 1.05425E-4
3585.937500; 1.04187E-4
3591.796875; 1.08869E-4
3597.656250; 1.13428E-4
3603.515625; 1.11286E-4
3609.375000; 1.09056E-4
3615.234375; 1.18055E-4
3621.093750; 1.14989E-4
3626.953125; 1.10703E-4
3632.812500; 1.08255E-4
3638.671875; 1.11267E-4
3644.531250; 1.20190E-4
3650.390625; 1.20020E-4
3656.250000; 1.12218E-4
3662.109375; 1.12551E-4
3667.968750; 1.13617E-4
3673.828125; 1.05388E-4
3679.687500; 1.07332E-4
3685.546875; 1.05999E-4
3691.406250; 1.13600E-4
3697.265625; 1.02216E-4
3703.125000; 1.10036E-4
3708.984375; 1.06433E-4
3714.843750; 1.07049E-4
3720.703125; 1.07016E-4
3726.562500; 1.12248E-4
3732.421875; 1.10831E-4
3738.281250; 1.13295E-4
3744.140625; 1.13695E-4
3750.000000; 1.14745E-4
3755.859375; 9.95674E-5
3761.718750; 9.63245E-5
3767.578125; 1.01582E-4
3773.437500; 1.06369E-4
3779.296875; 1.06847E-4
3785.156250; 1.19456E-4
3791.015625; 1.16006E-4
3796.875000; 1.03850E-4
3802.734375; 1.13755E-4
3808.593750; 1.16406E-4
3814.453125; 1.07628E-4
3820.312500; 1.14814E-4
3826.171875; 1.03403E-4
3832.031250; 1.07563E-4
3837.890625; 1.07906E-4
3843.750000; 1.05876E-4
3849.609375; 1.06479E-4
3855.468750; 1.17572E-4
3861.328125; 1.19226E-4
3867.187500; 1.19049E-4
3873.046875; 1.01192E-4
3878.906250; 1.08055E-4
3884.765625; 1.11667E-4
3890.625000; 1.12972E-4
3896.484375; 1.09180E-4
3902.343750; 1.06463E-4
3908.203125; 1.10575E-4
3914.062500; 1.14369E-4
3919.921875; 1.10284E-4
3925.781250; 1.03527E-4
3931.640625; 1.12126E-4
3937.500000; 1.08003E-4
3943.359375; 1.18412E-4
3949.218750; 1.09037E-4
3955.078125; 1.08121E-4
3960.937500; 1.15485E-4
3966.796875; 1.17851E-4
3972.656250; 1.07070E-4
3978.515625; 1.08420E-4
3984.375000; 1.09311E-4
3990.234375; 1.09774E-4
3996.093750; 1.13723E-4
4001.953125; 1.17819E-4
4007.812500; 1.17497E-4
4013.671875; 1.19708E-4
4019.531250; 1.07140E-4
4025.390625; 1.09863E-4
4031.250000; 1.12734E-4
4037.109375; 1.08003E-4
4042.968750; 1.03032E-4
4048.828125; 1.06875E-4
4054.687500; 1.03881E-4
4060.546875; 1.14392E-4
4066.406250; 1.05725E-4
4072.265625; 1.04911E-4
4078.125000; 1.05428E-4
4083.984375; 1.03876E-4
4089.843750; 1.05806E-4
4095.703125; 1.07812E-4
4101.562500; 1.16709E-4
4107.421875; 1.12284E-4
4113.281250; 1.11139E-4
4119.140625; 1.06415E-4
4125.000000; 1.08290E-4
4130.859375; 1.10547E-4
4136.718750; 1.12317E-4
4142.578125; 1.18541E-4
4148.437500; 1.16031E-4
4154.296875; 1.11954E-4
4160.156250; 1.11566E-4
4166.015625; 1.10012E-4
4171.875000; 9.90504E-5
4177.734375; 1.02077E-4
4183.593750; 1.07953E-4
4189.453125; 1.02232E-4
4195.312500; 1.01142E-4
4201.171875; 9.96510E-5
4207.031250; 1.07134E-4
4212.890625; 1.10363E-4
4218.750000; 1.11109E-4
4224.609375; 1.07883E-4
4230.468750; 1.12457E-4
4236.328125; 1.22070E-4
4242.187500; 1.13388E-4
4248.046875; 1.12217E-4
4253.906250; 1.10697E-4
4259.765625; 1.06225E-4
4265.625000; 1.01542E-4
4271.484375; 1.05666E-4
4277.343750; 1.20267E-4
4283.203125; 1.24158E-4
4289.062500; 1.11069E-4
4294.921875; 1.12036E-4
4300.781250; 1.07276E-4
4306.640625; 1.01843E-4
4312.500000; 9.52493E-5
4318.359375; 1.02995E-4
4324.218750; 1.09696E-4
4330.078125; 1.05451E-4
4335.937500; 1.15509E-4
4341.796875; 1.23141E-4
4347.656250; 1.05433E-4
4353.515625; 9.95248E-5
4359.375000; 1.07005E-4
4365.234375; 1.05943E-4
4371.093750; 1.06610E-4
4376.953125; 1.15450E-4
4382.812500; 1.11138E-4
4388.671875; 1.08608E-4
4394.531250; 1.13542E-4
4400.390625; 1.15576E-4
4406.250000; 1.07087E-4
4412.109375; 1.04317E-4
4417.968750; 1.08048E-4
4423.828125; 1.08105E-4
4429.687500; 1.15936E-4
4435.546875; 1.12034E-4
4441.406250; 1.07919E-4
4447.265625; 1.17621E-4
4453.125000; 1.12263E-4
4458.984375; 1.06455E-4
4464.843750; 1.03510E-4
4470.703125; 1.08236E-4
4476.562500; 1.08615E-4
4482.421875; 1.21930E-4
4488.281250; 1.21934E-4
4494.140625; 1.12087E-4
4500.000000; 1.10103E-4
4505.859375; 1.03391E-4
4511.718750; 1.10601E-4
4517.578125; 1.05051E-4
4523.437500; 9.09750E-5
4529.296875; 1.09256E-4
4535.156250; 1.08972E-4
4541.015625; 1.14746E-4
4546.875000; 1.18444E-4
4552.734375; 1.11248E-4
4558.593750; 9.97428E-5
4564.453125; 1.01159E-4
4570.312500; 1.09019E-4
4576.171875; 1.07983E-4
4582.031250; 1.07398E-4
4587.890625; 1.11288E-4
4593.750000; 1.03661E-4
4599.609375; 1.09442E-4
4605.468750; 1.06597E-4
4611.328125; 9.45580E-5
4617.187500; 9.72924E-5
4623.046875; 1.08645E-4
4628.906250; 1.15833E-4
4634.765625; 1.18156E-4
4640.625000; 1.21238E-4
4646.484375; 1.05167E-4
4652.343750; 1.05673E-4
4658.203125; 1.06592E-4
4664.062500; 1.01380E-4
