* Measurement data measured by REW V5.31.3
* Source: PCM: default, no input selected, 2, volume: no control
* Format: 8192-point spectrum using Hann window and exponential averaging 0.97 
* Dated: Mar 9, 2025 12:49:35 PM
* REW Settings:
*  C-weighting compensation: Off
*  Target level: 75.0 dB
* Note: OSDEHA ANODE-OUTPUT; 8192-point spectrum using Hann window and exponential averaging 0.97  Input RMS 56.18 V 56.18 VC, 56.18 VA 56.18 V 22 - 22k UNW 885.2 uV >22k Distortion at 1,000.0 Hz, -5.01 dBFS: Gain: 29.34 dB THD: 0.032 % based on 21 harmonics  [0..22800 Hz] HHD: 0.00066 %  [10 .. 22] N: 0.023 %  [0..22800 Hz] N+D: 21.03 mV A THD+N: 0.039 %  [0..22800 Hz] SNR: 72.9 dB ENOB: 12.4 bits 2nd harmonic 0.031 % -135 deg 3rd harmonic 0.0074 % -132 deg 4th harmonic 0.0030 % 156 deg 5th harmonic 0.0021 % -25 deg 6th harmonic 0.00075 % 142 deg 7th harmonic 0.00034 % -2 deg 8th harmonic 0.00023 % 85 deg 9th harmonic 0.00022 % 54 deg 
* Measurement: OSDEHA A-OUT 56.2
* Smoothing: None
* Frequency Step: 5.859375 Hz
* Start Frequency: 5.859375 Hz
*
* Freq(Hz); V(V)
5.859375; 2.66366E-4
11.718750; 2.89496E-4
17.578125; 2.39447E-4
23.437500; 2.10086E-4
29.296875; 1.81397E-4
35.156250; 1.76703E-4
41.015625; 1.77210E-4
46.875000; 3.92256E-4
52.734375; 3.97983E-4
58.593750; 1.62989E-4
64.453125; 1.58815E-4
70.312500; 1.43200E-4
76.171875; 1.38713E-4
82.031250; 1.36931E-4
87.890625; 1.69792E-4
93.750000; 5.18549E-3
99.609375; 1.14235E-2
105.468750; 6.26857E-3
111.328125; 2.01119E-4
117.187500; 1.38379E-4
123.046875; 1.38573E-4
128.906250; 1.31942E-4
134.765625; 1.34768E-4
140.625000; 1.32791E-4
146.484375; 1.58023E-4
152.343750; 1.56717E-4
158.203125; 1.20026E-4
164.062500; 1.32213E-4
169.921875; 1.43668E-4
175.781250; 1.24222E-4
181.640625; 1.30728E-4
187.500000; 1.39524E-4
193.359375; 6.15998E-4
199.218750; 1.47681E-3
205.078125; 8.92990E-4
210.937500; 1.39115E-4
216.796875; 1.14600E-4
222.656250; 1.13357E-4
228.515625; 1.30297E-4
234.375000; 1.23572E-4
240.234375; 1.28593E-4
246.093750; 1.53452E-4
251.953125; 1.59673E-4
257.812500; 1.17281E-4
263.671875; 1.23697E-4
269.531250; 1.21249E-4
275.390625; 1.22467E-4
281.250000; 1.20726E-4
287.109375; 1.10873E-4
292.968750; 1.42260E-4
298.828125; 2.39735E-4
304.687500; 1.82607E-4
310.546875; 1.03149E-4
316.406250; 1.10113E-4
322.265625; 1.01455E-4
328.125000; 1.01369E-4
333.984375; 1.06665E-4
339.843750; 1.04831E-4
345.703125; 1.52356E-4
351.562500; 1.86514E-4
357.421875; 1.21367E-4
363.281250; 1.11392E-4
369.140625; 1.04734E-4
375.000000; 9.83818E-5
380.859375; 1.03372E-4
386.718750; 1.12793E-4
392.578125; 1.74839E-4
398.437500; 4.28150E-4
404.296875; 3.23599E-4
410.156250; 1.17440E-4
416.015625; 9.63686E-5
421.875000; 1.02308E-4
427.734375; 1.12840E-4
433.593750; 1.31047E-4
439.453125; 1.26503E-4
445.312500; 1.26434E-4
451.171875; 1.53335E-4
457.031250; 1.34558E-4
462.890625; 1.16004E-4
468.750000; 1.18500E-4
474.609375; 1.14088E-4
480.468750; 1.02789E-4
486.328125; 1.03578E-4
492.187500; 1.36307E-4
498.046875; 3.04198E-4
503.906250; 2.53573E-4
509.765625; 1.14102E-4
515.625000; 1.08854E-4
521.484375; 1.21628E-4
527.343750; 1.28558E-4
533.203125; 1.27572E-4
539.062500; 1.13265E-4
544.921875; 1.09076E-4
550.781250; 1.32914E-4
556.640625; 1.10961E-4
562.500000; 1.25620E-4
568.359375; 1.17517E-4
574.218750; 1.10382E-4
580.078125; 1.20380E-4
585.937500; 1.21100E-4
591.796875; 1.34838E-4
597.656250; 1.39977E-4
603.515625; 1.29783E-4
609.375000; 1.24806E-4
615.234375; 1.24706E-4
621.093750; 1.19218E-4
626.953125; 1.22001E-4
632.812500; 1.45692E-4
638.671875; 1.15298E-4
644.531250; 1.40575E-4
650.390625; 1.59207E-4
656.250000; 1.23053E-4
662.109375; 1.39906E-4
667.968750; 1.38466E-4
673.828125; 1.39439E-4
679.687500; 1.57042E-4
685.546875; 1.49586E-4
691.406250; 1.53891E-4
697.265625; 2.36209E-4
703.125000; 2.18144E-4
708.984375; 1.75931E-4
714.843750; 1.58055E-4
720.703125; 1.79817E-4
726.562500; 1.98666E-4
732.421875; 1.94345E-4
738.281250; 1.93063E-4
744.140625; 2.43144E-4
750.000000; 2.23702E-4
755.859375; 2.46642E-4
761.718750; 2.53080E-4
767.578125; 2.86289E-4
773.437500; 2.94013E-4
779.296875; 3.09217E-4
785.156250; 3.30116E-4
791.015625; 3.61462E-4
796.875000; 3.83222E-4
802.734375; 4.31718E-4
808.593750; 4.75974E-4
814.453125; 4.86561E-4
820.312500; 5.55806E-4
826.171875; 6.11535E-4
832.031250; 6.56610E-4
837.890625; 7.47072E-4
843.750000; 8.26256E-4
849.609375; 9.24913E-4
855.468750; 1.04118E-3
861.328125; 1.18181E-3
867.187500; 1.32498E-3
873.046875; 1.54526E-3
878.906250; 1.74765E-3
884.765625; 2.04259E-3
890.625000; 2.39478E-3
896.484375; 2.81868E-3
902.343750; 3.36465E-3
908.203125; 4.05823E-3
914.062500; 4.91930E-3
919.921875; 6.10942E-3
925.781250; 7.65739E-3
931.640625; 9.83517E-3
937.500000; 1.28695E-2
943.359375; 1.73336E-2
949.218750; 2.41103E-2
955.078125; 3.49649E-2
960.937500; 5.34679E-2
966.796875; 8.78412E-2
972.656250; 1.59718E-1
978.515625; 3.39410E-1
984.375000; 9.50308E-1
990.234375; 5.22679E0
996.093750; 4.18142E1
1001.953125; 5.22677E1
1007.812500; 1.49336E1
1013.671875; 1.49336E0
1019.531250; 4.59494E-1
1025.390625; 2.01034E-1
1031.250000; 1.05809E-1
1037.109375; 6.25143E-2
1042.968750; 4.00136E-2
1048.828125; 2.71610E-2
1054.687500; 1.92535E-2
1060.546875; 1.41853E-2
1066.406250; 1.07117E-2
1072.265625; 8.31830E-3
1078.125000; 6.56744E-3
1083.984375; 5.28575E-3
1089.843750; 4.32380E-3
1095.703125; 3.56306E-3
1101.562500; 2.98915E-3
1107.421875; 2.52121E-3
1113.281250; 2.15568E-3
1119.140625; 1.85688E-3
1125.000000; 1.58721E-3
1130.859375; 1.40961E-3
1136.718750; 1.22587E-3
1142.578125; 1.08538E-3
1148.437500; 9.41838E-4
1154.296875; 8.70820E-4
1160.156250; 7.63269E-4
1166.015625; 6.98156E-4
1171.875000; 6.17154E-4
1177.734375; 5.62435E-4
1183.593750; 5.13237E-4
1189.453125; 4.78555E-4
1195.312500; 4.37959E-4
1201.171875; 3.94539E-4
1207.031250; 3.70460E-4
1212.890625; 3.55113E-4
1218.750000; 3.21955E-4
1224.609375; 2.90384E-4
1230.468750; 2.70081E-4
1236.328125; 2.61283E-4
1242.187500; 2.49701E-4
1248.046875; 2.28422E-4
1253.906250; 2.28505E-4
1259.765625; 2.00903E-4
1265.625000; 2.06029E-4
1271.484375; 1.87745E-4
1277.343750; 1.79892E-4
1283.203125; 1.67861E-4
1289.062500; 1.73595E-4
1294.921875; 1.71094E-4
1300.781250; 1.58779E-4
1306.640625; 1.38076E-4
1312.500000; 1.66690E-4
1318.359375; 1.39126E-4
1324.218750; 1.52851E-4
1330.078125; 1.44363E-4
1335.937500; 1.35756E-4
1341.796875; 1.39078E-4
1347.656250; 1.39363E-4
1353.515625; 1.34440E-4
1359.375000; 1.13944E-4
1365.234375; 1.31963E-4
1371.093750; 1.34093E-4
1376.953125; 1.25178E-4
1382.812500; 1.16369E-4
1388.671875; 1.09478E-4
1394.531250; 1.23062E-4
1400.390625; 1.18402E-4
1406.250000; 1.12930E-4
1412.109375; 9.79854E-5
1417.968750; 1.20407E-4
1423.828125; 1.16330E-4
1429.687500; 1.13388E-4
1435.546875; 1.19068E-4
1441.406250; 1.16881E-4
1447.265625; 1.17459E-4
1453.125000; 1.28227E-4
1458.984375; 1.10731E-4
1464.843750; 1.24369E-4
1470.703125; 1.22795E-4
1476.562500; 1.01792E-4
1482.421875; 1.04709E-4
1488.281250; 1.07914E-4
1494.140625; 1.04311E-4
1500.000000; 1.07802E-4
1505.859375; 1.08088E-4
1511.718750; 1.11614E-4
1517.578125; 1.24144E-4
1523.437500; 1.24092E-4
1529.296875; 1.12899E-4
1535.156250; 1.07963E-4
1541.015625; 1.08800E-4
1546.875000; 1.09290E-4
1552.734375; 1.18112E-4
1558.593750; 1.02165E-4
1564.453125; 1.09325E-4
1570.312500; 1.07200E-4
1576.171875; 1.11310E-4
1582.031250; 1.16648E-4
1587.890625; 1.23074E-4
1593.750000; 1.23577E-4
1599.609375; 1.22223E-4
1605.468750; 1.19142E-4
1611.328125; 1.11658E-4
1617.187500; 1.08967E-4
1623.046875; 1.06540E-4
1628.906250; 1.04618E-4
1634.765625; 1.07482E-4
1640.625000; 1.05355E-4
1646.484375; 9.92295E-5
1652.343750; 9.59916E-5
1658.203125; 1.00612E-4
1664.062500; 1.00230E-4
1669.921875; 1.03101E-4
1675.781250; 1.02970E-4
1681.640625; 9.51304E-5
1687.500000; 9.72818E-5
1693.359375; 1.11151E-4
1699.218750; 1.16560E-4
1705.078125; 1.00126E-4
1710.937500; 1.00957E-4
1716.796875; 1.10799E-4
1722.656250; 1.13800E-4
1728.515625; 1.12564E-4
1734.375000; 1.04248E-4
1740.234375; 1.10665E-4
1746.093750; 1.20023E-4
1751.953125; 1.23715E-4
1757.812500; 1.15635E-4
1763.671875; 1.11527E-4
1769.531250; 1.18591E-4
1775.390625; 1.18105E-4
1781.250000; 1.14104E-4
1787.109375; 1.05700E-4
1792.968750; 1.15176E-4
1798.828125; 1.16405E-4
1804.687500; 1.00211E-4
1810.546875; 1.03320E-4
1816.406250; 1.03744E-4
1822.265625; 1.06616E-4
1828.125000; 1.11834E-4
1833.984375; 1.07231E-4
1839.843750; 1.01593E-4
1845.703125; 1.13550E-4
1851.562500; 1.12480E-4
1857.421875; 1.08992E-4
1863.281250; 1.19431E-4
1869.140625; 1.06970E-4
1875.000000; 9.81926E-5
1880.859375; 1.06855E-4
1886.718750; 1.07172E-4
1892.578125; 1.20419E-4
1898.437500; 1.29371E-4
1904.296875; 1.20206E-4
1910.156250; 1.07764E-4
1916.015625; 1.07735E-4
1921.875000; 1.04523E-4
1927.734375; 1.08651E-4
1933.593750; 1.10138E-4
1939.453125; 1.09684E-4
1945.312500; 1.08760E-4
1951.171875; 1.04898E-4
1957.031250; 1.09492E-4
1962.890625; 1.17747E-4
1968.750000; 1.06684E-4
1974.609375; 1.14507E-4
1980.468750; 1.72656E-4
1986.328125; 4.74289E-4
1992.187500; 4.60784E-3
1998.046875; 1.61373E-2
2003.906250; 1.29147E-2
2009.765625; 1.62734E-3
2015.625000; 3.02272E-4
2021.484375; 1.48950E-4
2027.343750; 1.22362E-4
2033.203125; 1.08109E-4
2039.062500; 1.02232E-4
2044.921875; 1.06085E-4
2050.781250; 1.04878E-4
2056.640625; 1.07956E-4
2062.500000; 1.04497E-4
2068.359375; 1.08420E-4
2074.218750; 1.02563E-4
2080.078125; 1.01433E-4
2085.937500; 1.09218E-4
2091.796875; 1.08982E-4
2097.656250; 1.06772E-4
2103.515625; 1.04368E-4
2109.375000; 1.20538E-4
2115.234375; 1.11421E-4
2121.093750; 1.20066E-4
2126.953125; 1.14568E-4
2132.812500; 1.09257E-4
2138.671875; 1.11316E-4
2144.531250; 1.08232E-4
2150.390625; 1.16557E-4
2156.250000; 1.11472E-4
2162.109375; 9.77868E-5
2167.968750; 1.00045E-4
2173.828125; 1.05692E-4
2179.687500; 1.06635E-4
2185.546875; 1.15750E-4
2191.406250; 1.17240E-4
2197.265625; 1.12543E-4
2203.125000; 1.09917E-4
2208.984375; 1.05344E-4
2214.843750; 1.11138E-4
2220.703125; 1.02784E-4
2226.562500; 1.07031E-4
2232.421875; 1.17307E-4
2238.281250; 1.13895E-4
2244.140625; 1.09050E-4
2250.000000; 1.09068E-4
2255.859375; 9.96997E-5
2261.718750; 1.00849E-4
2267.578125; 1.01562E-4
2273.437500; 9.52981E-5
2279.296875; 1.00642E-4
2285.156250; 1.17432E-4
2291.015625; 1.14978E-4
2296.875000; 1.04412E-4
2302.734375; 1.09680E-4
2308.593750; 1.03389E-4
2314.453125; 9.96508E-5
2320.312500; 1.06414E-4
2326.171875; 1.01199E-4
2332.031250; 9.34451E-5
2337.890625; 1.01474E-4
2343.750000; 1.06837E-4
2349.609375; 1.14734E-4
2355.468750; 1.08347E-4
2361.328125; 1.07000E-4
2367.187500; 1.09498E-4
2373.046875; 1.09990E-4
2378.906250; 1.06033E-4
2384.765625; 1.00318E-4
2390.625000; 9.49610E-5
2396.484375; 1.08913E-4
2402.343750; 1.01345E-4
2408.203125; 1.03502E-4
2414.062500; 1.03129E-4
2419.921875; 1.04665E-4
2425.781250; 1.10132E-4
2431.640625; 1.02160E-4
2437.500000; 1.04842E-4
2443.359375; 1.10138E-4
2449.218750; 1.02554E-4
2455.078125; 9.39835E-5
2460.937500; 9.99697E-5
2466.796875; 1.01878E-4
2472.656250; 1.08229E-4
2478.515625; 1.20898E-4
2484.375000; 1.13454E-4
2490.234375; 1.05430E-4
2496.093750; 9.89588E-5
2501.953125; 1.10296E-4
2507.812500; 1.08797E-4
2513.671875; 1.07233E-4
2519.531250; 1.09544E-4
2525.390625; 1.10359E-4
2531.250000; 1.06582E-4
2537.109375; 9.69548E-5
2542.968750; 9.29076E-5
2548.828125; 1.02889E-4
2554.687500; 1.23518E-4
2560.546875; 1.18400E-4
2566.406250; 1.11681E-4
2572.265625; 1.10659E-4
2578.125000; 1.05766E-4
2583.984375; 1.05030E-4
2589.843750; 1.00670E-4
2595.703125; 1.04236E-4
2601.562500; 1.08387E-4
2607.421875; 1.00195E-4
2613.281250; 1.08409E-4
2619.140625; 1.06920E-4
2625.000000; 1.04209E-4
2630.859375; 1.14029E-4
2636.718750; 1.22128E-4
2642.578125; 1.13553E-4
2648.437500; 1.09459E-4
2654.296875; 1.07096E-4
2660.156250; 1.08733E-4
2666.015625; 1.00993E-4
2671.875000; 9.03466E-5
2677.734375; 1.03290E-4
2683.593750; 1.16058E-4
2689.453125; 1.21006E-4
2695.312500; 1.17250E-4
2701.171875; 1.13976E-4
2707.031250; 1.17659E-4
2712.890625; 1.06030E-4
2718.750000; 1.04777E-4
2724.609375; 1.04989E-4
2730.468750; 1.12848E-4
2736.328125; 1.05114E-4
2742.187500; 1.04000E-4
2748.046875; 1.19945E-4
2753.906250; 1.15593E-4
2759.765625; 1.12191E-4
2765.625000; 1.13491E-4
2771.484375; 1.02153E-4
2777.343750; 1.01890E-4
2783.203125; 1.05236E-4
2789.062500; 1.07398E-4
2794.921875; 1.06286E-4
2800.781250; 1.06035E-4
2806.640625; 1.03693E-4
2812.500000; 1.13471E-4
2818.359375; 1.12638E-4
2824.218750; 9.99981E-5
2830.078125; 8.95889E-5
2835.937500; 1.04191E-4
2841.796875; 1.15424E-4
2847.656250; 1.09149E-4
2853.515625; 9.85200E-5
2859.375000; 1.00982E-4
2865.234375; 1.05283E-4
2871.093750; 1.14035E-4
2876.953125; 1.08597E-4
2882.812500; 1.00573E-4
2888.671875; 1.05219E-4
2894.531250; 1.05759E-4
2900.390625; 1.09166E-4
2906.250000; 1.02719E-4
2912.109375; 1.08824E-4
2917.968750; 9.65408E-5
2923.828125; 9.60755E-5
2929.687500; 1.06978E-4
2935.546875; 1.12271E-4
2941.406250; 1.09478E-4
2947.265625; 1.11582E-4
2953.125000; 1.09481E-4
2958.984375; 1.05053E-4
2964.843750; 1.04896E-4
2970.703125; 1.07688E-4
2976.562500; 1.03697E-4
2982.421875; 1.04569E-4
2988.281250; 9.87065E-5
2994.140625; 2.06612E-3
3000.000000; 4.12563E-3
3005.859375; 2.06485E-3
3011.718750; 9.48824E-5
3017.578125; 9.17531E-5
3023.437500; 1.08042E-4
3029.296875; 1.18939E-4
3035.156250; 1.16627E-4
3041.015625; 1.09753E-4
3046.875000; 9.93999E-5
3052.734375; 1.05047E-4
3058.593750; 1.02840E-4
3064.453125; 9.07260E-5
3070.312500; 1.04662E-4
3076.171875; 1.07863E-4
3082.031250; 1.18978E-4
3087.890625; 1.19348E-4
3093.750000; 1.22444E-4
3099.609375; 1.13546E-4
3105.468750; 1.07044E-4
3111.328125; 1.15571E-4
3117.187500; 1.04567E-4
3123.046875; 1.06473E-4
3128.906250; 1.06370E-4
3134.765625; 1.01162E-4
3140.625000; 9.91404E-5
3146.484375; 9.63034E-5
3152.343750; 9.82714E-5
3158.203125; 1.09036E-4
3164.062500; 1.26181E-4
3169.921875; 1.15202E-4
3175.781250; 1.15395E-4
3181.640625; 1.11760E-4
3187.500000; 1.09311E-4
3193.359375; 1.12752E-4
3199.218750; 1.05032E-4
3205.078125; 9.07445E-5
3210.937500; 9.38626E-5
3216.796875; 1.09512E-4
3222.656250; 1.10753E-4
3228.515625; 1.10171E-4
3234.375000; 1.10579E-4
3240.234375; 1.05203E-4
3246.093750; 1.02093E-4
3251.953125; 1.07796E-4
3257.812500; 1.09183E-4
3263.671875; 1.05189E-4
3269.531250; 1.07942E-4
3275.390625; 1.02351E-4
3281.250000; 1.11882E-4
3287.109375; 1.14578E-4
3292.968750; 1.09644E-4
3298.828125; 1.01470E-4
3304.687500; 9.36359E-5
3310.546875; 9.53681E-5
3316.406250; 9.72862E-5
3322.265625; 1.01960E-4
3328.125000; 1.01948E-4
3333.984375; 8.84666E-5
3339.843750; 9.93143E-5
3345.703125; 1.18508E-4
3351.562500; 1.11535E-4
3357.421875; 1.09329E-4
3363.281250; 9.44940E-5
3369.140625; 1.06343E-4
3375.000000; 1.12209E-4
3380.859375; 1.08778E-4
3386.718750; 1.03412E-4
3392.578125; 1.07065E-4
3398.437500; 1.27101E-4
3404.296875; 1.17020E-4
3410.156250; 1.20426E-4
3416.015625; 1.16881E-4
3421.875000; 1.16748E-4
3427.734375; 1.06627E-4
3433.593750; 9.28555E-5
3439.453125; 8.78950E-5
3445.312500; 9.25408E-5
3451.171875; 9.92096E-5
3457.031250; 1.10953E-4
3462.890625; 1.07759E-4
3468.750000; 1.00667E-4
3474.609375; 9.96039E-5
3480.468750; 9.47958E-5
3486.328125; 1.06542E-4
3492.187500; 1.15688E-4
3498.046875; 1.11061E-4
3503.906250; 1.01301E-4
3509.765625; 1.00873E-4
3515.625000; 9.79837E-5
3521.484375; 9.33831E-5
3527.343750; 9.77134E-5
3533.203125; 1.02932E-4
3539.062500; 9.95688E-5
3544.921875; 1.07828E-4
3550.781250; 1.09047E-4
3556.640625; 9.74936E-5
3562.500000; 9.98847E-5
3568.359375; 1.05393E-4
3574.218750; 1.09893E-4
3580.078125; 1.10054E-4
3585.937500; 9.86669E-5
3591.796875; 9.80519E-5
3597.656250; 1.14519E-4
3603.515625; 1.01681E-4
3609.375000; 1.00988E-4
3615.234375; 1.08976E-4
3621.093750; 1.12313E-4
3626.953125; 1.03764E-4
3632.812500; 1.01531E-4
3638.671875; 9.06215E-5
3644.531250; 9.63160E-5
3650.390625; 9.13051E-5
3656.250000; 1.01083E-4
3662.109375; 1.03299E-4
3667.968750; 1.03086E-4
3673.828125; 1.03114E-4
3679.687500; 1.09734E-4
3685.546875; 1.10501E-4
3691.406250; 1.08447E-4
3697.265625; 1.07813E-4
3703.125000; 1.03926E-4
3708.984375; 9.88443E-5
3714.843750; 9.68133E-5
3720.703125; 1.02168E-4
3726.562500; 9.74770E-5
3732.421875; 1.03481E-4
3738.281250; 1.02294E-4
3744.140625; 1.06342E-4
3750.000000; 1.16460E-4
3755.859375; 1.10410E-4
3761.718750; 1.08747E-4
3767.578125; 1.05469E-4
3773.437500; 9.85187E-5
3779.296875; 1.01179E-4
3785.156250; 9.67787E-5
3791.015625; 9.45585E-5
3796.875000; 1.03115E-4
3802.734375; 1.13125E-4
3808.593750; 1.07635E-4
3814.453125; 1.06123E-4
3820.312500; 1.14026E-4
3826.171875; 1.09246E-4
3832.031250; 1.02851E-4
3837.890625; 1.05485E-4
3843.750000; 9.46766E-5
3849.609375; 9.45146E-5
3855.468750; 1.01930E-4
3861.328125; 1.05614E-4
3867.187500; 9.76007E-5
3873.046875; 1.08929E-4
3878.906250; 1.11409E-4
3884.765625; 1.11416E-4
3890.625000; 1.09606E-4
3896.484375; 1.13088E-4
3902.343750; 1.05157E-4
3908.203125; 1.06494E-4
3914.062500; 9.54892E-5
3919.921875; 9.23926E-5
3925.781250; 1.00900E-4
3931.640625; 9.60757E-5
3937.500000; 1.06875E-4
3943.359375; 1.12652E-4
3949.218750; 1.13675E-4
3955.078125; 1.05199E-4
3960.937500; 9.99280E-5
3966.796875; 1.10864E-4
3972.656250; 1.11515E-4
3978.515625; 1.11730E-4
3984.375000; 1.18141E-4
3990.234375; 2.03461E-4
3996.093750; 1.24566E-3
4001.953125; 1.53848E-3
4007.812500; 4.47532E-4
4013.671875; 1.20188E-4
4019.531250; 1.11190E-4
4025.390625; 1.01352E-4
4031.250000; 1.03050E-4
4037.109375; 9.92815E-5
4042.968750; 1.03677E-4
4048.828125; 9.65095E-5
4054.687500; 9.39270E-5
4060.546875; 9.83377E-5
4066.406250; 9.95427E-5
4072.265625; 1.01050E-4
4078.125000; 1.06936E-4
4083.984375; 1.09989E-4
4089.843750; 1.07271E-4
4095.703125; 1.14035E-4
4101.562500; 1.00862E-4
4107.421875; 1.02112E-4
4113.281250; 1.00861E-4
4119.140625; 1.02942E-4
4125.000000; 9.69739E-5
4130.859375; 1.00923E-4
4136.718750; 1.12740E-4
4142.578125; 1.14767E-4
4148.437500; 9.39821E-5
4154.296875; 1.07706E-4
4160.156250; 1.20517E-4
4166.015625; 1.11273E-4
4171.875000; 9.59621E-5
4177.734375; 1.01129E-4
4183.593750; 1.07790E-4
4189.453125; 1.15474E-4
4195.312500; 1.15526E-4
4201.171875; 1.12545E-4
4207.031250; 1.04149E-4
4212.890625; 1.01629E-4
4218.750000; 1.12902E-4
4224.609375; 1.03591E-4
4230.468750; 9.98302E-5
4236.328125; 1.09196E-4
4242.187500; 1.04621E-4
4248.046875; 1.15899E-4
4253.906250; 9.81501E-5
4259.765625; 1.13531E-4
4265.625000; 1.19681E-4
4271.484375; 1.06989E-4
4277.343750; 9.57395E-5
4283.203125; 9.29409E-5
4289.062500; 9.84917E-5
4294.921875; 1.09402E-4
4300.781250; 1.11951E-4
4306.640625; 1.16000E-4
4312.500000; 1.20708E-4
4318.359375; 1.04788E-4
4324.218750; 1.06190E-4
4330.078125; 1.06207E-4
4335.937500; 1.07940E-4
4341.796875; 9.93540E-5
4347.656250; 1.04779E-4
4353.515625; 1.00660E-4
4359.375000; 1.02382E-4
4365.234375; 1.14885E-4
4371.093750; 1.08689E-4
4376.953125; 1.09047E-4
4382.812500; 1.09010E-4
4388.671875; 1.01277E-4
4394.531250; 9.73554E-5
4400.390625; 9.99687E-5
4406.250000; 1.05179E-4
4412.109375; 1.09460E-4
4417.968750; 1.08062E-4
4423.828125; 1.02541E-4
4429.687500; 9.87190E-5
4435.546875; 9.49806E-5
4441.406250; 1.01603E-4
4447.265625; 1.06950E-4
4453.125000; 1.00363E-4
4458.984375; 1.01946E-4
4464.843750; 1.14611E-4
4470.703125; 9.97822E-5
4476.562500; 9.46959E-5
4482.421875; 1.14154E-4
4488.281250; 1.19233E-4
4494.140625; 9.97273E-5
4500.000000; 9.86724E-5
4505.859375; 1.11790E-4
4511.718750; 1.14099E-4
4517.578125; 1.05754E-4
4523.437500; 1.01540E-4
4529.296875; 1.04511E-4
4535.156250; 1.00732E-4
4541.015625; 1.00272E-4
4546.875000; 1.05349E-4
4552.734375; 1.07503E-4
4558.593750; 1.04591E-4
4564.453125; 1.01249E-4
4570.312500; 1.07169E-4
4576.171875; 1.09731E-4
4582.031250; 9.53866E-5
4587.890625; 9.62298E-5
4593.750000; 1.04914E-4
4599.609375; 1.09189E-4
4605.468750; 1.13399E-4
4611.328125; 1.11072E-4
4617.187500; 1.05755E-4
4623.046875; 1.05039E-4
4628.906250; 1.06098E-4
4634.765625; 1.03401E-4
4640.625000; 9.42252E-5
4646.484375; 1.12504E-4
4652.343750; 1.13370E-4
4658.203125; 1.04125E-4
4664.062500; 1.01510E-4
