* Measurement data measured by REW V5.31.3
* Source: PCM: default, no input selected, 2, volume: no control
* Format: 8192-point spectrum using Hann window and exponential averaging 0.97 
* Dated: Mar 9, 2025 1:13:36 PM
* REW Settings:
*  C-weighting compensation: Off
*  Target level: 75.0 dB
* Note: OSDEHA MU-OUTPUT; 8192-point spectrum using Hann window and exponential averaging 0.97  Input RMS 4.218 V 4.218 VC, 4.218 VA 4.218 V 22 - 22k UNW 957.9 uV >22k Distortion at 1,000.0 Hz, -27.50 dBFS: Gain: 29.68 dB THD: 0.012 % based on 21 harmonics  [0..22800 Hz] HHD: 0.0091 %  [10 .. 22] N: 0.33 %  [0..22800 Hz] N+D: 4.363 mV A THD+N: 0.33 %  [0..22800 Hz] SNR: 49.6 dB ENOB: 13.0 bits 2nd harmonic 0.0038 % 141 deg 3rd harmonic 0.0027 % 70 deg 4th harmonic 0.0025 % 174 deg 5th harmonic 0.0028 % -66 deg 6th harmonic 0.0025 % 80 deg 7th harmonic 0.0028 % -128 deg 8th harmonic 0.0025 % -27 deg 9th harmonic 0.0026 % -91 deg 
* Measurement: OSDEHA MU-OUT 4.21V
* Smoothing: None
* Frequency Step: 5.859375 Hz
* Start Frequency: 5.859375 Hz
*
* Freq(Hz); V(V)
5.859375; 2.75059E-4
11.718750; 2.55887E-4
17.578125; 2.20988E-4
23.437500; 2.06665E-4
29.296875; 2.09296E-4
35.156250; 2.13273E-4
41.015625; 1.94762E-4
46.875000; 3.17066E-4
52.734375; 3.24227E-4
58.593750; 1.61154E-4
64.453125; 1.54739E-4
70.312500; 1.49044E-4
76.171875; 1.41707E-4
82.031250; 1.54122E-4
87.890625; 2.02944E-4
93.750000; 5.77266E-3
99.609375; 1.27211E-2
105.468750; 6.97388E-3
111.328125; 2.07998E-4
117.187500; 1.66827E-4
123.046875; 1.63928E-4
128.906250; 1.59399E-4
134.765625; 1.57224E-4
140.625000; 1.40408E-4
146.484375; 1.46793E-4
152.343750; 1.59901E-4
158.203125; 1.72873E-4
164.062500; 1.33889E-4
169.921875; 1.36842E-4
175.781250; 1.37075E-4
181.640625; 1.39522E-4
187.500000; 1.46142E-4
193.359375; 5.68932E-4
199.218750; 1.33324E-3
205.078125; 8.09258E-4
210.937500; 1.35949E-4
216.796875; 1.44746E-4
222.656250; 1.34166E-4
228.515625; 1.25757E-4
234.375000; 1.43928E-4
240.234375; 1.46118E-4
246.093750; 1.44813E-4
251.953125; 1.40620E-4
257.812500; 1.19584E-4
263.671875; 1.23094E-4
269.531250; 1.33572E-4
275.390625; 1.27922E-4
281.250000; 1.27332E-4
287.109375; 1.11648E-4
292.968750; 1.77386E-4
298.828125; 3.24164E-4
304.687500; 2.12469E-4
310.546875; 1.13510E-4
316.406250; 1.10364E-4
322.265625; 1.19472E-4
328.125000; 1.24119E-4
333.984375; 1.32299E-4
339.843750; 1.20735E-4
345.703125; 1.26171E-4
351.562500; 1.22849E-4
357.421875; 1.20208E-4
363.281250; 1.26144E-4
369.140625; 1.30457E-4
375.000000; 1.17938E-4
380.859375; 1.36757E-4
386.718750; 1.35872E-4
392.578125; 1.51167E-4
398.437500; 2.78690E-4
404.296875; 2.20686E-4
410.156250; 1.38439E-4
416.015625; 1.28170E-4
421.875000; 1.12087E-4
427.734375; 1.23939E-4
433.593750; 1.19706E-4
439.453125; 1.25709E-4
445.312500; 1.27212E-4
451.171875; 1.10604E-4
457.031250; 1.13652E-4
462.890625; 1.14086E-4
468.750000; 1.05344E-4
474.609375; 1.11918E-4
480.468750; 1.12172E-4
486.328125; 1.23664E-4
492.187500; 1.32009E-4
498.046875; 1.43354E-4
503.906250; 1.26992E-4
509.765625; 1.35180E-4
515.625000; 1.19239E-4
521.484375; 1.13690E-4
527.343750; 1.21363E-4
533.203125; 1.23581E-4
539.062500; 1.16022E-4
544.921875; 1.07492E-4
550.781250; 1.00330E-4
556.640625; 1.05285E-4
562.500000; 1.09181E-4
568.359375; 1.10523E-4
574.218750; 1.05224E-4
580.078125; 1.15547E-4
585.937500; 1.22249E-4
591.796875; 1.17524E-4
597.656250; 1.12673E-4
603.515625; 1.27382E-4
609.375000; 1.18413E-4
615.234375; 1.08710E-4
621.093750; 1.11620E-4
626.953125; 1.13412E-4
632.812500; 1.19339E-4
638.671875; 1.03802E-4
644.531250; 1.12887E-4
650.390625; 1.18353E-4
656.250000; 1.07747E-4
662.109375; 1.17524E-4
667.968750; 1.18670E-4
673.828125; 1.17448E-4
679.687500; 1.09980E-4
685.546875; 1.16035E-4
691.406250; 1.14030E-4
697.265625; 1.31014E-4
703.125000; 1.27091E-4
708.984375; 1.23412E-4
714.843750; 1.12161E-4
720.703125; 1.07798E-4
726.562500; 1.05627E-4
732.421875; 1.20616E-4
738.281250; 1.10027E-4
744.140625; 1.13461E-4
750.000000; 1.17165E-4
755.859375; 1.22457E-4
761.718750; 1.04526E-4
767.578125; 1.03429E-4
773.437500; 1.21011E-4
779.296875; 1.37923E-4
785.156250; 1.20398E-4
791.015625; 1.25261E-4
796.875000; 1.32397E-4
802.734375; 1.35891E-4
808.593750; 1.20328E-4
814.453125; 1.09385E-4
820.312500; 1.22304E-4
826.171875; 1.25327E-4
832.031250; 1.29210E-4
837.890625; 1.24637E-4
843.750000; 1.28764E-4
849.609375; 1.14942E-4
855.468750; 1.24758E-4
861.328125; 1.49737E-4
867.187500; 1.59767E-4
873.046875; 1.51767E-4
878.906250; 1.88684E-4
884.765625; 1.90556E-4
890.625000; 2.10158E-4
896.484375; 2.32144E-4
902.343750; 2.82472E-4
908.203125; 3.18428E-4
914.062500; 3.80750E-4
919.921875; 4.81502E-4
925.781250; 5.95475E-4
931.640625; 7.22099E-4
937.500000; 9.96032E-4
943.359375; 1.29283E-3
949.218750; 1.82608E-3
955.078125; 2.62393E-3
960.937500; 4.00827E-3
966.796875; 6.59721E-3
972.656250; 1.20001E-2
978.515625; 2.54714E-2
984.375000; 7.13455E-2
990.234375; 3.92402E-1
996.093750; 3.13920E0
1001.953125; 3.92400E0
1007.812500; 1.12114E0
1013.671875; 1.12122E-1
1019.531250; 3.45069E-2
1025.390625; 1.50764E-2
1031.250000; 7.95170E-3
1037.109375; 4.70238E-3
1042.968750; 2.99611E-3
1048.828125; 2.04102E-3
1054.687500; 1.45121E-3
1060.546875; 1.06794E-3
1066.406250; 8.21203E-4
1072.265625; 6.24105E-4
1078.125000; 5.15732E-4
1083.984375; 4.13767E-4
1089.843750; 3.33781E-4
1095.703125; 2.92660E-4
1101.562500; 2.55898E-4
1107.421875; 2.12842E-4
1113.281250; 2.11784E-4
1119.140625; 1.63760E-4
1125.000000; 1.65483E-4
1130.859375; 1.51105E-4
1136.718750; 1.46259E-4
1142.578125; 1.39776E-4
1148.437500; 1.33708E-4
1154.296875; 1.30624E-4
1160.156250; 1.26640E-4
1166.015625; 1.14835E-4
1171.875000; 1.21732E-4
1177.734375; 1.24612E-4
1183.593750; 1.26424E-4
1189.453125; 1.17148E-4
1195.312500; 1.09578E-4
1201.171875; 1.02586E-4
1207.031250; 1.09271E-4
1212.890625; 1.14636E-4
1218.750000; 1.13723E-4
1224.609375; 1.12428E-4
1230.468750; 1.11165E-4
1236.328125; 1.12216E-4
1242.187500; 1.16787E-4
1248.046875; 1.18791E-4
1253.906250; 1.13212E-4
1259.765625; 1.09061E-4
1265.625000; 1.03287E-4
1271.484375; 1.10061E-4
1277.343750; 1.08639E-4
1283.203125; 1.21074E-4
1289.062500; 1.17732E-4
1294.921875; 1.16527E-4
1300.781250; 1.15280E-4
1306.640625; 1.10795E-4
1312.500000; 1.14875E-4
1318.359375; 1.34964E-4
1324.218750; 1.33430E-4
1330.078125; 1.17173E-4
1335.937500; 1.01919E-4
1341.796875; 1.07065E-4
1347.656250; 1.12019E-4
1353.515625; 1.17941E-4
1359.375000; 1.11830E-4
1365.234375; 1.15419E-4
1371.093750; 1.20747E-4
1376.953125; 1.10079E-4
1382.812500; 1.10424E-4
1388.671875; 1.06960E-4
1394.531250; 1.13753E-4
1400.390625; 1.04489E-4
1406.250000; 1.13175E-4
1412.109375; 1.19363E-4
1417.968750; 1.25319E-4
1423.828125; 1.14997E-4
1429.687500; 1.15092E-4
1435.546875; 1.22690E-4
1441.406250; 1.20463E-4
1447.265625; 1.17133E-4
1453.125000; 1.22340E-4
1458.984375; 1.21761E-4
1464.843750; 1.14755E-4
1470.703125; 1.08013E-4
1476.562500; 1.02669E-4
1482.421875; 1.12929E-4
1488.281250; 1.21544E-4
1494.140625; 1.19765E-4
1500.000000; 1.10943E-4
1505.859375; 1.00747E-4
1511.718750; 1.12759E-4
1517.578125; 1.12075E-4
1523.437500; 1.08106E-4
1529.296875; 9.40904E-5
1535.156250; 1.12085E-4
1541.015625; 1.13046E-4
1546.875000; 1.05374E-4
1552.734375; 1.21170E-4
1558.593750; 1.27340E-4
1564.453125; 1.15672E-4
1570.312500; 1.16009E-4
1576.171875; 1.17772E-4
1582.031250; 1.22054E-4
1587.890625; 1.17168E-4
1593.750000; 1.25355E-4
1599.609375; 1.25901E-4
1605.468750; 1.17792E-4
1611.328125; 1.19523E-4
1617.187500; 1.19597E-4
1623.046875; 1.18932E-4
1628.906250; 1.16902E-4
1634.765625; 1.05988E-4
1640.625000; 9.28597E-5
1646.484375; 9.77291E-5
1652.343750; 1.11045E-4
1658.203125; 1.12431E-4
1664.062500; 1.05407E-4
1669.921875; 1.00549E-4
1675.781250; 1.12230E-4
1681.640625; 1.03253E-4
1687.500000; 1.03662E-4
1693.359375; 1.08143E-4
1699.218750; 1.10677E-4
1705.078125; 1.08537E-4
1710.937500; 1.03023E-4
1716.796875; 9.14634E-5
1722.656250; 1.03459E-4
1728.515625; 1.12018E-4
1734.375000; 1.16919E-4
1740.234375; 1.15369E-4
1746.093750; 1.05584E-4
1751.953125; 1.14583E-4
1757.812500; 1.17361E-4
1763.671875; 1.13735E-4
1769.531250; 1.11012E-4
1775.390625; 1.12677E-4
1781.250000; 1.02416E-4
1787.109375; 1.12914E-4
1792.968750; 1.12537E-4
1798.828125; 1.08554E-4
1804.687500; 1.06283E-4
1810.546875; 1.11676E-4
1816.406250; 1.14728E-4
1822.265625; 1.25535E-4
1828.125000; 1.23580E-4
1833.984375; 1.17180E-4
1839.843750; 1.08126E-4
1845.703125; 1.09368E-4
1851.562500; 1.22603E-4
1857.421875; 1.22698E-4
1863.281250; 1.12424E-4
1869.140625; 1.10523E-4
1875.000000; 1.16363E-4
1880.859375; 1.20350E-4
1886.718750; 1.11641E-4
1892.578125; 1.18455E-4
1898.437500; 1.07703E-4
1904.296875; 9.59173E-5
1910.156250; 1.17123E-4
1916.015625; 1.23801E-4
1921.875000; 1.08583E-4
1927.734375; 1.07935E-4
1933.593750; 1.10370E-4
1939.453125; 1.19014E-4
1945.312500; 1.19888E-4
1951.171875; 1.13075E-4
1957.031250; 1.07871E-4
1962.890625; 1.09694E-4
1968.750000; 1.12313E-4
1974.609375; 1.07406E-4
1980.468750; 9.63985E-5
1986.328125; 1.04975E-4
1992.187500; 1.27986E-4
1998.046875; 2.08792E-4
2003.906250; 1.73204E-4
2009.765625; 1.16713E-4
2015.625000; 1.20903E-4
2021.484375; 1.19888E-4
2027.343750; 1.15134E-4
2033.203125; 1.00395E-4
2039.062500; 1.00426E-4
2044.921875; 1.14610E-4
2050.781250; 1.12335E-4
2056.640625; 1.20251E-4
2062.500000; 1.20129E-4
2068.359375; 1.10309E-4
2074.218750; 1.10142E-4
2080.078125; 1.12466E-4
2085.937500; 1.07445E-4
2091.796875; 1.19238E-4
2097.656250; 1.19789E-4
2103.515625; 1.23603E-4
2109.375000; 1.10886E-4
2115.234375; 1.12821E-4
2121.093750; 1.15333E-4
2126.953125; 1.13793E-4
2132.812500; 1.15653E-4
2138.671875; 1.09412E-4
2144.531250; 1.04261E-4
2150.390625; 1.14842E-4
2156.250000; 1.15117E-4
2162.109375; 1.17181E-4
2167.968750; 1.11317E-4
2173.828125; 1.05253E-4
2179.687500; 1.11842E-4
2185.546875; 1.12791E-4
2191.406250; 1.11410E-4
2197.265625; 1.13717E-4
2203.125000; 1.15470E-4
2208.984375; 1.25466E-4
2214.843750; 1.13521E-4
2220.703125; 9.37761E-5
2226.562500; 9.31399E-5
2232.421875; 1.07225E-4
2238.281250; 1.11497E-4
2244.140625; 1.07847E-4
2250.000000; 1.08488E-4
2255.859375; 1.02031E-4
2261.718750; 1.22800E-4
2267.578125; 1.25812E-4
2273.437500; 1.09560E-4
2279.296875; 1.17822E-4
2285.156250; 1.16375E-4
2291.015625; 1.08466E-4
2296.875000; 1.10907E-4
2302.734375; 1.15415E-4
2308.593750; 1.09053E-4
2314.453125; 1.09837E-4
2320.312500; 1.21901E-4
2326.171875; 1.17133E-4
2332.031250; 1.12966E-4
2337.890625; 1.07544E-4
2343.750000; 1.03588E-4
2349.609375; 9.67283E-5
2355.468750; 1.04716E-4
2361.328125; 1.21106E-4
2367.187500; 1.20532E-4
2373.046875; 9.41026E-5
2378.906250; 9.48926E-5
2384.765625; 1.06987E-4
2390.625000; 1.02478E-4
2396.484375; 1.03113E-4
2402.343750; 1.15516E-4
2408.203125; 1.11176E-4
2414.062500; 9.83754E-5
2419.921875; 1.03422E-4
2425.781250; 1.17944E-4
2431.640625; 1.14568E-4
2437.500000; 1.04075E-4
2443.359375; 1.09071E-4
2449.218750; 1.02943E-4
2455.078125; 1.01350E-4
2460.937500; 1.10086E-4
2466.796875; 1.17525E-4
2472.656250; 1.16161E-4
2478.515625; 1.19969E-4
2484.375000; 1.18115E-4
2490.234375; 1.07189E-4
2496.093750; 1.20834E-4
2501.953125; 1.12178E-4
2507.812500; 1.18219E-4
2513.671875; 1.29592E-4
2519.531250; 1.23857E-4
2525.390625; 1.21073E-4
2531.250000; 1.16642E-4
2537.109375; 1.07134E-4
2542.968750; 1.07716E-4
2548.828125; 1.01378E-4
2554.687500; 1.02485E-4
2560.546875; 1.06704E-4
2566.406250; 1.09378E-4
2572.265625; 1.07702E-4
2578.125000; 1.19051E-4
2583.984375; 1.19453E-4
2589.843750; 1.12181E-4
2595.703125; 1.09769E-4
2601.562500; 1.08311E-4
2607.421875; 1.15811E-4
2613.281250; 1.17226E-4
2619.140625; 1.17622E-4
2625.000000; 9.85719E-5
2630.859375; 9.40825E-5
2636.718750; 1.05620E-4
2642.578125; 1.26237E-4
2648.437500; 1.40517E-4
2654.296875; 1.20526E-4
2660.156250; 1.13114E-4
2666.015625; 1.15280E-4
2671.875000; 1.17373E-4
2677.734375; 1.21864E-4
2683.593750; 1.10217E-4
2689.453125; 1.07808E-4
2695.312500; 1.07690E-4
2701.171875; 1.09077E-4
2707.031250; 1.05534E-4
2712.890625; 1.02881E-4
2718.750000; 1.12912E-4
2724.609375; 1.05032E-4
2730.468750; 1.11827E-4
2736.328125; 1.15818E-4
2742.187500; 1.09543E-4
2748.046875; 1.03796E-4
2753.906250; 1.16981E-4
2759.765625; 1.20164E-4
2765.625000; 1.06944E-4
2771.484375; 1.05745E-4
2777.343750; 1.06902E-4
2783.203125; 1.03293E-4
2789.062500; 1.08465E-4
2794.921875; 1.07728E-4
2800.781250; 9.69296E-5
2806.640625; 1.13214E-4
2812.500000; 1.14152E-4
2818.359375; 9.76083E-5
2824.218750; 1.16746E-4
2830.078125; 1.13894E-4
2835.937500; 1.00390E-4
2841.796875; 1.14446E-4
2847.656250; 1.25416E-4
2853.515625; 1.09222E-4
2859.375000; 1.05277E-4
2865.234375; 1.15507E-4
2871.093750; 1.21302E-4
2876.953125; 1.09303E-4
2882.812500; 1.08413E-4
2888.671875; 1.11214E-4
2894.531250; 1.10525E-4
2900.390625; 1.13494E-4
2906.250000; 1.19892E-4
2912.109375; 1.23501E-4
2917.968750; 1.13336E-4
2923.828125; 1.15551E-4
2929.687500; 1.11564E-4
2935.546875; 1.17687E-4
2941.406250; 1.18390E-4
2947.265625; 1.19904E-4
2953.125000; 1.21650E-4
2958.984375; 1.23695E-4
2964.843750; 1.15914E-4
2970.703125; 1.23492E-4
2976.562500; 1.18781E-4
2982.421875; 1.20282E-4
2988.281250; 1.16067E-4
2994.140625; 1.18463E-4
3000.000000; 1.10337E-4
3005.859375; 1.10274E-4
3011.718750; 1.07999E-4
3017.578125; 9.43995E-5
3023.437500; 9.88442E-5
3029.296875; 9.99075E-5
3035.156250; 1.10138E-4
3041.015625; 1.15770E-4
3046.875000; 1.11327E-4
3052.734375; 1.01141E-4
3058.593750; 1.03771E-4
3064.453125; 1.15226E-4
3070.312500; 1.05660E-4
3076.171875; 9.49138E-5
3082.031250; 9.80327E-5
3087.890625; 1.03036E-4
3093.750000; 9.85803E-5
3099.609375; 1.21618E-4
3105.468750; 1.24313E-4
3111.328125; 1.15990E-4
3117.187500; 1.08021E-4
3123.046875; 1.22046E-4
3128.906250; 1.22579E-4
3134.765625; 9.43012E-5
3140.625000; 9.56814E-5
3146.484375; 1.22738E-4
3152.343750; 1.21186E-4
3158.203125; 1.04369E-4
3164.062500; 1.01495E-4
3169.921875; 1.15797E-4
3175.781250; 1.01513E-4
3181.640625; 9.87612E-5
3187.500000; 1.18553E-4
3193.359375; 1.21316E-4
3199.218750; 1.04504E-4
3205.078125; 1.13299E-4
3210.937500; 1.14146E-4
3216.796875; 1.04962E-4
3222.656250; 1.34065E-4
3228.515625; 1.17632E-4
3234.375000; 1.01012E-4
3240.234375; 1.05341E-4
3246.093750; 9.33441E-5
3251.953125; 9.43416E-5
3257.812500; 1.01247E-4
3263.671875; 1.08109E-4
3269.531250; 1.11879E-4
3275.390625; 1.04225E-4
3281.250000; 1.15792E-4
3287.109375; 1.12568E-4
3292.968750; 1.20844E-4
3298.828125; 1.17873E-4
3304.687500; 1.13954E-4
3310.546875; 1.15330E-4
3316.406250; 1.08789E-4
3322.265625; 1.00123E-4
3328.125000; 1.15307E-4
3333.984375; 1.10702E-4
3339.843750; 1.14701E-4
3345.703125; 1.07779E-4
3351.562500; 1.14262E-4
3357.421875; 1.02759E-4
3363.281250; 9.64583E-5
3369.140625; 1.08825E-4
3375.000000; 1.23505E-4
3380.859375; 1.14660E-4
3386.718750; 1.10149E-4
3392.578125; 1.05129E-4
3398.437500; 9.53404E-5
3404.296875; 1.02573E-4
3410.156250; 1.13175E-4
3416.015625; 1.00667E-4
3421.875000; 9.90853E-5
3427.734375; 1.15936E-4
3433.593750; 1.12666E-4
3439.453125; 1.08730E-4
3445.312500; 1.08565E-4
3451.171875; 1.20765E-4
3457.031250; 1.08272E-4
3462.890625; 1.08468E-4
3468.750000; 9.48994E-5
3474.609375; 9.92844E-5
3480.468750; 9.60784E-5
3486.328125; 9.52014E-5
3492.187500; 1.22425E-4
3498.046875; 1.15498E-4
3503.906250; 9.56867E-5
3509.765625; 1.10594E-4
3515.625000; 1.06118E-4
3521.484375; 1.08351E-4
3527.343750; 1.14666E-4
3533.203125; 1.08997E-4
3539.062500; 1.13219E-4
3544.921875; 1.20666E-4
3550.781250; 1.12917E-4
3556.640625; 1.03221E-4
3562.500000; 1.00375E-4
3568.359375; 9.82489E-5
3574.218750; 1.06048E-4
3580.078125; 1.11618E-4
3585.937500; 1.12340E-4
3591.796875; 1.10228E-4
3597.656250; 1.09094E-4
3603.515625; 1.06272E-4
3609.375000; 1.07933E-4
3615.234375; 1.07580E-4
3621.093750; 1.00356E-4
3626.953125; 9.26189E-5
3632.812500; 9.09895E-5
3638.671875; 1.05901E-4
3644.531250; 1.17258E-4
3650.390625; 1.18533E-4
3656.250000; 1.07484E-4
3662.109375; 1.16455E-4
3667.968750; 1.12504E-4
3673.828125; 1.06089E-4
3679.687500; 9.68516E-5
3685.546875; 1.11502E-4
3691.406250; 1.00627E-4
3697.265625; 1.03469E-4
3703.125000; 1.12130E-4
3708.984375; 1.17311E-4
3714.843750; 1.05745E-4
3720.703125; 1.07654E-4
3726.562500; 1.14712E-4
3732.421875; 1.04221E-4
3738.281250; 9.69612E-5
3744.140625; 1.11184E-4
3750.000000; 1.11925E-4
3755.859375; 1.05684E-4
3761.718750; 1.06726E-4
3767.578125; 1.05576E-4
3773.437500; 1.08410E-4
3779.296875; 9.94838E-5
3785.156250; 1.10927E-4
3791.015625; 1.26854E-4
3796.875000; 1.17844E-4
3802.734375; 9.95397E-5
3808.593750; 1.07661E-4
3814.453125; 1.24580E-4
3820.312500; 1.23404E-4
3826.171875; 1.16439E-4
3832.031250; 1.10250E-4
3837.890625; 1.08239E-4
3843.750000; 1.08882E-4
3849.609375; 1.05336E-4
3855.468750; 1.11972E-4
3861.328125; 9.93754E-5
3867.187500; 1.08004E-4
3873.046875; 1.21810E-4
3878.906250; 1.12548E-4
3884.765625; 1.09345E-4
3890.625000; 1.11315E-4
3896.484375; 1.11613E-4
3902.343750; 1.00089E-4
3908.203125; 9.91226E-5
3914.062500; 1.09494E-4
3919.921875; 1.15730E-4
3925.781250; 1.12723E-4
3931.640625; 1.03714E-4
3937.500000; 1.01353E-4
3943.359375; 1.02751E-4
3949.218750; 1.07625E-4
3955.078125; 1.05239E-4
3960.937500; 1.12136E-4
3966.796875; 1.16737E-4
3972.656250; 1.08470E-4
3978.515625; 1.00358E-4
3984.375000; 1.11142E-4
3990.234375; 1.15965E-4
3996.093750; 1.07132E-4
4001.953125; 1.02885E-4
4007.812500; 1.04363E-4
4013.671875; 1.02409E-4
4019.531250; 1.11066E-4
4025.390625; 1.10515E-4
4031.250000; 1.09757E-4
4037.109375; 1.10115E-4
4042.968750; 1.08627E-4
4048.828125; 1.14265E-4
4054.687500; 1.07418E-4
4060.546875; 1.07021E-4
4066.406250; 1.23494E-4
4072.265625; 1.22896E-4
4078.125000; 1.12248E-4
4083.984375; 1.05920E-4
4089.843750; 1.11887E-4
4095.703125; 1.06375E-4
4101.562500; 1.16107E-4
4107.421875; 1.18068E-4
4113.281250; 1.12100E-4
4119.140625; 1.03826E-4
4125.000000; 1.13012E-4
4130.859375; 1.07290E-4
4136.718750; 1.01851E-4
4142.578125; 1.07363E-4
4148.437500; 1.20309E-4
4154.296875; 1.06766E-4
4160.156250; 1.13497E-4
4166.015625; 1.12359E-4
4171.875000; 1.09816E-4
4177.734375; 1.05295E-4
4183.593750; 1.21701E-4
4189.453125; 1.18600E-4
4195.312500; 1.07697E-4
4201.171875; 1.06971E-4
4207.031250; 1.01757E-4
4212.890625; 9.84799E-5
4218.750000; 1.00123E-4
4224.609375; 1.14199E-4
4230.468750; 1.01455E-4
4236.328125; 1.13835E-4
4242.187500; 1.22742E-4
4248.046875; 1.09944E-4
4253.906250; 9.65967E-5
4259.765625; 1.00035E-4
4265.625000; 1.00473E-4
4271.484375; 1.11427E-4
4277.343750; 1.19015E-4
4283.203125; 1.14484E-4
4289.062500; 1.11375E-4
4294.921875; 1.08318E-4
4300.781250; 9.12620E-5
4306.640625; 1.00679E-4
4312.500000; 1.17625E-4
4318.359375; 1.15103E-4
4324.218750; 1.08694E-4
4330.078125; 1.04400E-4
4335.937500; 1.07761E-4
4341.796875; 1.13351E-4
4347.656250; 1.08212E-4
4353.515625; 1.07872E-4
4359.375000; 1.14335E-4
4365.234375; 1.09325E-4
4371.093750; 1.08778E-4
4376.953125; 1.15013E-4
4382.812500; 1.07019E-4
4388.671875; 1.10498E-4
4394.531250; 1.12417E-4
4400.390625; 9.50087E-5
4406.250000; 8.94239E-5
4412.109375; 1.10683E-4
4417.968750; 1.05642E-4
4423.828125; 9.05728E-5
4429.687500; 9.49962E-5
4435.546875; 1.06003E-4
4441.406250; 1.11874E-4
4447.265625; 1.17768E-4
4453.125000; 1.18778E-4
4458.984375; 1.00239E-4
4464.843750; 9.79959E-5
4470.703125; 1.03438E-4
4476.562500; 1.13274E-4
4482.421875; 1.11525E-4
4488.281250; 1.18494E-4
4494.140625; 1.12491E-4
4500.000000; 1.07878E-4
4505.859375; 9.50536E-5
4511.718750; 1.02068E-4
4517.578125; 1.07453E-4
4523.437500; 1.04712E-4
4529.296875; 1.11687E-4
4535.156250; 1.08027E-4
4541.015625; 9.92743E-5
4546.875000; 1.04511E-4
4552.734375; 1.09312E-4
4558.593750; 1.23370E-4
4564.453125; 1.19720E-4
4570.312500; 1.04826E-4
4576.171875; 9.86196E-5
4582.031250; 9.76164E-5
4587.890625; 1.04693E-4
4593.750000; 1.09034E-4
4599.609375; 1.19110E-4
4605.468750; 1.11421E-4
4611.328125; 1.06770E-4
4617.187500; 1.11013E-4
4623.046875; 1.07976E-4
4628.906250; 9.87029E-5
4634.765625; 1.12100E-4
4640.625000; 1.15396E-4
4646.484375; 1.10631E-4
4652.343750; 1.00013E-4
4658.203125; 9.95826E-5
4664.062500; 1.00652E-4
