* Measurement data measured by REW V5.31.3
* Source: PCM: default, no input selected, 2, volume: no control
* Format: 8192-point spectrum using Hann window and exponential averaging 0.97 
* Dated: Mar 9, 2025 1:26:57 PM
* REW Settings:
*  C-weighting compensation: Off
*  Target level: 75.0 dB
* Note: OSDEHA MU-OUTPUT; 8192-point spectrum using Hann window and exponential averaging 0.97  Input RMS 31.63 V 31.63 VC, 31.63 VA 31.63 V 22 - 22k UNW 952.7 uV >22k Distortion at 1,000.0 Hz, -10.00 dBFS: Gain: 29.67 dB THD: 0.025 % based on 21 harmonics  [0..22800 Hz] HHD: 0.0012 %  [10 .. 22] N: 0.045 %  [0..22800 Hz] N+D: 10.17 mV A THD+N: 0.051 %  [0..22800 Hz] SNR: 67.0 dB ENOB: 12.8 bits 2nd harmonic 0.025 % 142 deg 3rd harmonic 0.0033 % -54 deg 4th harmonic 0.0023 % 145 deg 5th harmonic 0.00035 % -21 deg 6th harmonic 0.00034 % 20 deg 7th harmonic 0.00036 % -87 deg 8th harmonic 0.00033 % 146 deg 9th harmonic 0.00034 % 3 deg 
* Measurement: OSDEHA MU-OUT 31.6V
* Smoothing: None
* Frequency Step: 5.859375 Hz
* Start Frequency: 5.859375 Hz
*
* Freq(Hz); V(V)
5.859375; 2.32038E-4
11.718750; 2.57887E-4
17.578125; 2.19546E-4
23.437500; 1.85131E-4
29.296875; 1.67128E-4
35.156250; 1.74655E-4
41.015625; 1.72089E-4
46.875000; 3.28209E-4
52.734375; 3.49517E-4
58.593750; 1.79921E-4
64.453125; 1.66879E-4
70.312500; 1.52839E-4
76.171875; 1.60912E-4
82.031250; 1.75161E-4
87.890625; 2.09748E-4
93.750000; 5.79486E-3
99.609375; 1.29386E-2
105.468750; 7.20292E-3
111.328125; 2.42114E-4
117.187500; 1.57284E-4
123.046875; 1.53375E-4
128.906250; 1.46668E-4
134.765625; 1.33233E-4
140.625000; 1.47328E-4
146.484375; 1.62922E-4
152.343750; 1.69194E-4
158.203125; 1.53232E-4
164.062500; 1.43902E-4
169.921875; 1.42888E-4
175.781250; 1.37347E-4
181.640625; 1.40403E-4
187.500000; 1.43631E-4
193.359375; 5.64785E-4
199.218750; 1.37225E-3
205.078125; 8.61246E-4
210.937500; 1.44702E-4
216.796875; 1.35680E-4
222.656250; 1.35224E-4
228.515625; 1.40628E-4
234.375000; 1.37811E-4
240.234375; 1.37297E-4
246.093750; 1.43493E-4
251.953125; 1.38186E-4
257.812500; 1.39874E-4
263.671875; 1.39393E-4
269.531250; 1.20302E-4
275.390625; 1.26022E-4
281.250000; 1.31947E-4
287.109375; 1.40754E-4
292.968750; 1.64549E-4
298.828125; 3.01009E-4
304.687500; 2.26400E-4
310.546875; 1.28065E-4
316.406250; 1.22192E-4
322.265625; 1.13212E-4
328.125000; 1.14901E-4
333.984375; 1.17368E-4
339.843750; 1.10493E-4
345.703125; 1.18965E-4
351.562500; 1.33793E-4
357.421875; 1.25779E-4
363.281250; 1.21853E-4
369.140625; 1.33297E-4
375.000000; 1.26327E-4
380.859375; 1.19930E-4
386.718750; 1.19122E-4
392.578125; 1.36401E-4
398.437500; 2.60264E-4
404.296875; 2.28176E-4
410.156250; 1.34596E-4
416.015625; 1.15308E-4
421.875000; 1.22371E-4
427.734375; 1.24447E-4
433.593750; 1.19766E-4
439.453125; 1.23572E-4
445.312500; 1.37976E-4
451.171875; 1.44175E-4
457.031250; 1.24329E-4
462.890625; 1.22560E-4
468.750000; 1.17380E-4
474.609375; 1.13029E-4
480.468750; 1.21448E-4
486.328125; 1.16958E-4
492.187500; 1.08714E-4
498.046875; 1.34990E-4
503.906250; 1.32951E-4
509.765625; 1.21814E-4
515.625000; 1.24860E-4
521.484375; 1.21121E-4
527.343750; 1.06975E-4
533.203125; 1.18964E-4
539.062500; 1.09733E-4
544.921875; 1.07430E-4
550.781250; 1.04421E-4
556.640625; 1.21214E-4
562.500000; 1.20035E-4
568.359375; 1.20070E-4
574.218750; 1.31240E-4
580.078125; 1.30114E-4
585.937500; 1.25101E-4
591.796875; 1.15724E-4
597.656250; 1.33442E-4
603.515625; 1.36817E-4
609.375000; 1.52261E-4
615.234375; 1.20310E-4
621.093750; 1.24752E-4
626.953125; 1.13015E-4
632.812500; 1.20620E-4
638.671875; 1.13933E-4
644.531250; 1.18593E-4
650.390625; 1.33887E-4
656.250000; 1.23110E-4
662.109375; 1.29293E-4
667.968750; 1.21724E-4
673.828125; 1.22556E-4
679.687500; 1.13007E-4
685.546875; 1.41865E-4
691.406250; 1.35474E-4
697.265625; 1.52059E-4
703.125000; 1.33552E-4
708.984375; 1.30593E-4
714.843750; 1.41458E-4
720.703125; 1.45591E-4
726.562500; 1.53770E-4
732.421875; 1.38387E-4
738.281250; 1.49659E-4
744.140625; 1.59992E-4
750.000000; 1.63074E-4
755.859375; 1.52813E-4
761.718750; 1.60826E-4
767.578125; 1.88668E-4
773.437500; 1.87776E-4
779.296875; 1.91795E-4
785.156250; 2.05789E-4
791.015625; 2.44128E-4
796.875000; 2.22649E-4
802.734375; 2.58085E-4
808.593750; 2.87087E-4
814.453125; 2.91914E-4
820.312500; 3.23662E-4
826.171875; 3.31343E-4
832.031250; 4.08659E-4
837.890625; 4.20752E-4
843.750000; 4.73565E-4
849.609375; 5.25930E-4
855.468750; 5.95420E-4
861.328125; 6.73309E-4
867.187500; 7.62546E-4
873.046875; 8.63493E-4
878.906250; 9.93916E-4
884.765625; 1.15341E-3
890.625000; 1.35018E-3
896.484375; 1.59786E-3
902.343750; 1.88782E-3
908.203125; 2.28113E-3
914.062500; 2.76843E-3
919.921875; 3.44505E-3
925.781250; 4.32269E-3
931.640625; 5.53022E-3
937.500000; 7.25262E-3
943.359375; 9.76024E-3
949.218750; 1.35675E-2
955.078125; 1.96842E-2
960.937500; 3.01132E-2
966.796875; 4.94614E-2
972.656250; 8.99219E-2
978.515625; 1.91105E-1
984.375000; 5.35059E-1
990.234375; 2.94288E0
996.093750; 2.35431E1
1001.953125; 2.94288E1
1007.812500; 8.40823E0
1013.671875; 8.40840E-1
1019.531250; 2.58710E-1
1025.390625; 1.13178E-1
1031.250000; 5.95838E-2
1037.109375; 3.51947E-2
1042.968750; 2.25368E-2
1048.828125; 1.52852E-2
1054.687500; 1.08471E-2
1060.546875; 7.98550E-3
1066.406250; 6.02909E-3
1072.265625; 4.67931E-3
1078.125000; 3.71223E-3
1083.984375; 2.96776E-3
1089.843750; 2.43864E-3
1095.703125; 2.02228E-3
1101.562500; 1.65787E-3
1107.421875; 1.44454E-3
1113.281250; 1.20416E-3
1119.140625; 1.05623E-3
1125.000000; 8.98366E-4
1130.859375; 7.99375E-4
1136.718750; 6.90809E-4
1142.578125; 6.22321E-4
1148.437500; 5.49333E-4
1154.296875; 4.87642E-4
1160.156250; 4.46051E-4
1166.015625; 3.80532E-4
1171.875000; 3.70546E-4
1177.734375; 3.38568E-4
1183.593750; 3.06176E-4
1189.453125; 2.90204E-4
1195.312500; 2.72197E-4
1201.171875; 2.31962E-4
1207.031250; 2.27055E-4
1212.890625; 2.14054E-4
1218.750000; 2.07994E-4
1224.609375; 1.89353E-4
1230.468750; 1.77057E-4
1236.328125; 1.81783E-4
1242.187500; 1.65699E-4
1248.046875; 1.71594E-4
1253.906250; 1.49504E-4
1259.765625; 1.61321E-4
1265.625000; 1.41089E-4
1271.484375; 1.28815E-4
1277.343750; 1.39715E-4
1283.203125; 1.35043E-4
1289.062500; 1.48891E-4
1294.921875; 1.23563E-4
1300.781250; 1.19599E-4
1306.640625; 1.29844E-4
1312.500000; 1.32191E-4
1318.359375; 1.27941E-4
1324.218750; 1.21855E-4
1330.078125; 1.18065E-4
1335.937500; 1.08493E-4
1341.796875; 1.14118E-4
1347.656250; 1.21281E-4
1353.515625; 1.20360E-4
1359.375000; 1.12642E-4
1365.234375; 1.13764E-4
1371.093750; 1.19903E-4
1376.953125; 1.28644E-4
1382.812500; 1.09633E-4
1388.671875; 1.08686E-4
1394.531250; 1.14869E-4
1400.390625; 1.07926E-4
1406.250000; 1.17319E-4
1412.109375; 1.24898E-4
1417.968750; 1.14496E-4
1423.828125; 1.10485E-4
1429.687500; 1.07490E-4
1435.546875; 1.04433E-4
1441.406250; 1.03545E-4
1447.265625; 1.04757E-4
1453.125000; 1.09213E-4
1458.984375; 1.19137E-4
1464.843750; 1.10480E-4
1470.703125; 1.01911E-4
1476.562500; 1.03994E-4
1482.421875; 9.98301E-5
1488.281250; 1.08075E-4
1494.140625; 1.14474E-4
1500.000000; 1.09282E-4
1505.859375; 1.10564E-4
1511.718750; 1.08397E-4
1517.578125; 1.17959E-4
1523.437500; 1.13129E-4
1529.296875; 1.19812E-4
1535.156250; 1.19477E-4
1541.015625; 1.22331E-4
1546.875000; 1.33581E-4
1552.734375; 1.31556E-4
1558.593750; 1.10568E-4
1564.453125; 9.90233E-5
1570.312500; 9.98196E-5
1576.171875; 1.10101E-4
1582.031250; 1.10809E-4
1587.890625; 1.05355E-4
1593.750000; 1.07393E-4
1599.609375; 1.21818E-4
1605.468750; 1.19206E-4
1611.328125; 1.06052E-4
1617.187500; 1.08237E-4
1623.046875; 1.01450E-4
1628.906250; 1.02950E-4
1634.765625; 1.00198E-4
1640.625000; 1.08983E-4
1646.484375; 1.01005E-4
1652.343750; 9.78182E-5
1658.203125; 9.76981E-5
1664.062500; 1.04001E-4
1669.921875; 1.05412E-4
1675.781250; 1.10604E-4
1681.640625; 1.12920E-4
1687.500000; 1.09513E-4
1693.359375; 1.06484E-4
1699.218750; 1.00169E-4
1705.078125; 1.08730E-4
1710.937500; 1.07296E-4
1716.796875; 1.02715E-4
1722.656250; 1.13793E-4
1728.515625; 1.17571E-4
1734.375000; 1.09027E-4
1740.234375; 1.25094E-4
1746.093750; 1.16968E-4
1751.953125; 1.00475E-4
1757.812500; 1.00965E-4
1763.671875; 1.11311E-4
1769.531250; 1.12603E-4
1775.390625; 9.89529E-5
1781.250000; 1.12090E-4
1787.109375; 1.15504E-4
1792.968750; 1.15741E-4
1798.828125; 1.14401E-4
1804.687500; 1.15213E-4
1810.546875; 1.13987E-4
1816.406250; 1.03223E-4
1822.265625; 1.19809E-4
1828.125000; 1.15673E-4
1833.984375; 1.10580E-4
1839.843750; 1.06430E-4
1845.703125; 1.02140E-4
1851.562500; 9.76361E-5
1857.421875; 1.00411E-4
1863.281250; 1.06139E-4
1869.140625; 1.19577E-4
1875.000000; 1.21632E-4
1880.859375; 1.20771E-4
1886.718750; 1.02948E-4
1892.578125; 1.07908E-4
1898.437500; 1.07519E-4
1904.296875; 1.10155E-4
1910.156250; 1.10666E-4
1916.015625; 1.14659E-4
1921.875000; 1.11375E-4
1927.734375; 1.08971E-4
1933.593750; 1.06543E-4
1939.453125; 1.08398E-4
1945.312500; 1.15709E-4
1951.171875; 1.19434E-4
1957.031250; 1.11340E-4
1962.890625; 1.15008E-4
1968.750000; 1.25794E-4
1974.609375; 1.07575E-4
1980.468750; 1.32562E-4
1986.328125; 2.17411E-4
1992.187500; 2.12506E-3
1998.046875; 7.36160E-3
2003.906250; 5.88538E-3
2009.765625; 7.38330E-4
2015.625000; 1.79431E-4
2021.484375; 1.17855E-4
2027.343750; 1.11709E-4
2033.203125; 1.14286E-4
2039.062500; 1.17189E-4
2044.921875; 1.10753E-4
2050.781250; 1.21148E-4
2056.640625; 1.18905E-4
2062.500000; 1.10382E-4
2068.359375; 1.15319E-4
2074.218750; 1.14098E-4
2080.078125; 1.04040E-4
2085.937500; 1.00282E-4
2091.796875; 1.07162E-4
2097.656250; 1.07118E-4
2103.515625; 1.24152E-4
2109.375000; 1.23287E-4
2115.234375; 1.12762E-4
2121.093750; 9.97940E-5
2126.953125; 1.09670E-4
2132.812500; 1.15687E-4
2138.671875; 1.06146E-4
2144.531250; 1.05438E-4
2150.390625; 1.07331E-4
2156.250000; 1.08780E-4
2162.109375; 1.11749E-4
2167.968750; 1.16353E-4
2173.828125; 1.22337E-4
2179.687500; 1.08685E-4
2185.546875; 1.17160E-4
2191.406250; 1.13096E-4
2197.265625; 1.08746E-4
2203.125000; 1.08480E-4
2208.984375; 1.10943E-4
2214.843750; 1.01743E-4
2220.703125; 1.04157E-4
2226.562500; 9.88513E-5
2232.421875; 1.15608E-4
2238.281250; 1.12431E-4
2244.140625; 1.04967E-4
2250.000000; 1.04689E-4
2255.859375; 1.17930E-4
2261.718750; 1.15023E-4
2267.578125; 1.03442E-4
2273.437500; 1.09815E-4
2279.296875; 1.12847E-4
2285.156250; 1.16105E-4
2291.015625; 1.15064E-4
2296.875000; 1.06882E-4
2302.734375; 1.05652E-4
2308.593750; 9.57764E-5
2314.453125; 1.08626E-4
2320.312500; 1.09698E-4
2326.171875; 1.04537E-4
2332.031250; 1.04073E-4
2337.890625; 1.07801E-4
2343.750000; 1.18659E-4
2349.609375; 1.17235E-4
2355.468750; 1.09011E-4
2361.328125; 1.08274E-4
2367.187500; 1.10730E-4
2373.046875; 1.04811E-4
2378.906250; 1.13537E-4
2384.765625; 1.05965E-4
2390.625000; 1.06142E-4
2396.484375; 1.08586E-4
2402.343750; 1.11197E-4
2408.203125; 1.18748E-4
2414.062500; 1.12886E-4
2419.921875; 1.13653E-4
2425.781250; 1.10885E-4
2431.640625; 1.13456E-4
2437.500000; 1.12533E-4
2443.359375; 1.02114E-4
2449.218750; 1.02261E-4
2455.078125; 1.04875E-4
2460.937500; 1.06906E-4
2466.796875; 1.08970E-4
2472.656250; 1.11728E-4
2478.515625; 1.12623E-4
2484.375000; 1.17323E-4
2490.234375; 1.01396E-4
2496.093750; 1.01624E-4
2501.953125; 1.15449E-4
2507.812500; 1.17393E-4
2513.671875; 1.13418E-4
2519.531250; 1.07279E-4
2525.390625; 1.09385E-4
2531.250000; 1.05613E-4
2537.109375; 1.09733E-4
2542.968750; 1.20038E-4
2548.828125; 1.12154E-4
2554.687500; 1.12541E-4
2560.546875; 1.14409E-4
2566.406250; 1.09664E-4
2572.265625; 1.20675E-4
2578.125000; 1.13688E-4
2583.984375; 1.11360E-4
2589.843750; 1.02955E-4
2595.703125; 9.77164E-5
2601.562500; 9.92167E-5
2607.421875; 1.06273E-4
2613.281250; 1.16850E-4
2619.140625; 1.15077E-4
2625.000000; 1.05965E-4
2630.859375; 1.11020E-4
2636.718750; 1.08380E-4
2642.578125; 1.12581E-4
2648.437500; 1.02335E-4
2654.296875; 1.02066E-4
2660.156250; 1.03549E-4
2666.015625; 1.01061E-4
2671.875000; 1.09595E-4
2677.734375; 1.11077E-4
2683.593750; 1.14199E-4
2689.453125; 1.15168E-4
2695.312500; 1.09290E-4
2701.171875; 9.81179E-5
2707.031250; 1.05855E-4
2712.890625; 1.15675E-4
2718.750000; 1.11691E-4
2724.609375; 1.16031E-4
2730.468750; 1.11775E-4
2736.328125; 1.09793E-4
2742.187500; 1.22375E-4
2748.046875; 1.18575E-4
2753.906250; 1.15838E-4
2759.765625; 1.17238E-4
2765.625000; 1.15021E-4
2771.484375; 1.03909E-4
2777.343750; 1.06208E-4
2783.203125; 1.07329E-4
2789.062500; 1.03474E-4
2794.921875; 1.01855E-4
2800.781250; 9.48319E-5
2806.640625; 1.09957E-4
2812.500000; 1.07764E-4
2818.359375; 1.03216E-4
2824.218750; 1.03748E-4
2830.078125; 1.03192E-4
2835.937500; 1.11932E-4
2841.796875; 1.13321E-4
2847.656250; 1.08280E-4
2853.515625; 1.04309E-4
2859.375000; 1.11447E-4
2865.234375; 1.09787E-4
2871.093750; 1.11748E-4
2876.953125; 1.13193E-4
2882.812500; 1.01264E-4
2888.671875; 1.06640E-4
2894.531250; 1.12924E-4
2900.390625; 1.11475E-4
2906.250000; 9.98048E-5
2912.109375; 1.06648E-4
2917.968750; 1.18751E-4
2923.828125; 1.21263E-4
2929.687500; 1.18879E-4
2935.546875; 1.17739E-4
2941.406250; 1.08352E-4
2947.265625; 1.13053E-4
2953.125000; 1.14602E-4
2958.984375; 1.03402E-4
2964.843750; 1.06632E-4
2970.703125; 1.10842E-4
2976.562500; 1.13193E-4
2982.421875; 1.05548E-4
2988.281250; 1.08319E-4
2994.140625; 5.22405E-4
3000.000000; 1.04032E-3
3005.859375; 5.27531E-4
3011.718750; 1.03368E-4
3017.578125; 9.48192E-5
3023.437500; 1.01043E-4
3029.296875; 1.12727E-4
3035.156250; 1.09127E-4
3041.015625; 9.87233E-5
3046.875000; 1.07977E-4
3052.734375; 1.11627E-4
3058.593750; 1.05057E-4
3064.453125; 1.02818E-4
3070.312500; 9.83004E-5
3076.171875; 8.91805E-5
3082.031250; 1.01982E-4
3087.890625; 1.01986E-4
3093.750000; 1.16462E-4
3099.609375; 1.11592E-4
3105.468750; 1.00421E-4
3111.328125; 1.10361E-4
3117.187500; 1.07761E-4
3123.046875; 1.06476E-4
3128.906250; 1.06230E-4
3134.765625; 1.06287E-4
3140.625000; 1.10986E-4
3146.484375; 1.13951E-4
3152.343750; 1.06174E-4
3158.203125; 1.14722E-4
3164.062500; 1.14090E-4
3169.921875; 1.06688E-4
3175.781250; 1.06595E-4
3181.640625; 1.00963E-4
3187.500000; 1.08200E-4
3193.359375; 1.08848E-4
3199.218750; 1.05226E-4
3205.078125; 1.14447E-4
3210.937500; 1.19397E-4
3216.796875; 1.17542E-4
3222.656250; 1.16098E-4
3228.515625; 1.14677E-4
3234.375000; 1.12611E-4
3240.234375; 1.17945E-4
3246.093750; 1.20019E-4
3251.953125; 1.14981E-4
3257.812500; 1.11979E-4
3263.671875; 1.11091E-4
3269.531250; 1.04013E-4
3275.390625; 1.02299E-4
3281.250000; 1.08189E-4
3287.109375; 1.02270E-4
3292.968750; 1.06890E-4
3298.828125; 1.08920E-4
3304.687500; 1.10467E-4
3310.546875; 1.06559E-4
3316.406250; 1.07901E-4
3322.265625; 1.11839E-4
3328.125000; 1.12153E-4
3333.984375; 1.12147E-4
3339.843750; 1.21680E-4
3345.703125; 1.12372E-4
3351.562500; 1.14642E-4
3357.421875; 1.14672E-4
3363.281250; 1.04442E-4
3369.140625; 1.02812E-4
3375.000000; 1.06923E-4
3380.859375; 1.02317E-4
3386.718750; 9.42497E-5
3392.578125; 8.79696E-5
3398.437500; 1.02586E-4
3404.296875; 1.02624E-4
3410.156250; 1.01168E-4
3416.015625; 1.08135E-4
3421.875000; 1.05063E-4
3427.734375; 1.14000E-4
3433.593750; 1.04712E-4
3439.453125; 9.91854E-5
3445.312500; 1.01143E-4
3451.171875; 9.67598E-5
3457.031250; 9.93411E-5
3462.890625; 1.08716E-4
3468.750000; 1.04241E-4
3474.609375; 1.13304E-4
3480.468750; 1.25481E-4
3486.328125; 1.08776E-4
3492.187500; 1.18502E-4
3498.046875; 1.40208E-4
3503.906250; 1.20025E-4
3509.765625; 1.09935E-4
3515.625000; 1.06250E-4
3521.484375; 1.10759E-4
3527.343750; 1.12773E-4
3533.203125; 1.05061E-4
3539.062500; 1.06607E-4
3544.921875; 1.14639E-4
3550.781250; 1.02595E-4
3556.640625; 1.06109E-4
3562.500000; 9.77514E-5
3568.359375; 9.74740E-5
3574.218750; 1.01149E-4
3580.078125; 1.02097E-4
3585.937500; 1.04126E-4
3591.796875; 1.07554E-4
3597.656250; 1.03975E-4
3603.515625; 1.04651E-4
3609.375000; 1.06767E-4
3615.234375; 1.07106E-4
3621.093750; 1.07705E-4
3626.953125; 1.08701E-4
3632.812500; 1.04741E-4
3638.671875; 1.03319E-4
3644.531250; 9.79282E-5
3650.390625; 9.54653E-5
3656.250000; 1.12695E-4
3662.109375; 1.17404E-4
3667.968750; 1.09763E-4
3673.828125; 1.11570E-4
3679.687500; 1.09371E-4
3685.546875; 1.09137E-4
3691.406250; 1.12769E-4
3697.265625; 1.03541E-4
3703.125000; 1.00776E-4
3708.984375; 1.08972E-4
3714.843750; 1.06579E-4
3720.703125; 1.08178E-4
3726.562500; 1.06847E-4
3732.421875; 1.08060E-4
3738.281250; 1.08867E-4
3744.140625; 1.00547E-4
3750.000000; 1.05595E-4
3755.859375; 1.00866E-4
3761.718750; 1.20389E-4
3767.578125; 1.14422E-4
3773.437500; 1.00969E-4
3779.296875; 9.85408E-5
3785.156250; 9.71375E-5
3791.015625; 1.11884E-4
3796.875000; 1.02933E-4
3802.734375; 1.06232E-4
3808.593750; 1.15372E-4
3814.453125; 1.10612E-4
3820.312500; 1.06855E-4
3826.171875; 1.14343E-4
3832.031250; 1.12083E-4
3837.890625; 1.10010E-4
3843.750000; 1.08194E-4
3849.609375; 1.03879E-4
3855.468750; 1.09042E-4
3861.328125; 1.12943E-4
3867.187500; 1.19066E-4
3873.046875; 1.19470E-4
3878.906250; 1.13101E-4
3884.765625; 1.20814E-4
3890.625000; 1.17362E-4
3896.484375; 1.00445E-4
3902.343750; 1.01417E-4
3908.203125; 1.09334E-4
3914.062500; 1.01333E-4
3919.921875; 1.08101E-4
3925.781250; 1.05552E-4
3931.640625; 1.06637E-4
3937.500000; 1.15439E-4
3943.359375; 1.05462E-4
3949.218750; 1.04456E-4
3955.078125; 1.08483E-4
3960.937500; 9.75529E-5
3966.796875; 9.49359E-5
3972.656250; 1.03460E-4
3978.515625; 1.12694E-4
3984.375000; 1.15546E-4
3990.234375; 1.23274E-4
3996.093750; 5.23472E-4
4001.953125; 6.46852E-4
4007.812500; 2.13787E-4
4013.671875; 9.91905E-5
4019.531250; 1.00646E-4
4025.390625; 1.03449E-4
4031.250000; 1.02166E-4
4037.109375; 1.11176E-4
4042.968750; 1.11443E-4
4048.828125; 1.03741E-4
4054.687500; 1.15439E-4
4060.546875; 1.16322E-4
4066.406250; 1.11384E-4
4072.265625; 1.11973E-4
4078.125000; 1.16142E-4
4083.984375; 1.09249E-4
4089.843750; 1.18922E-4
4095.703125; 1.07778E-4
4101.562500; 1.01045E-4
4107.421875; 1.02766E-4
4113.281250; 1.02950E-4
4119.140625; 1.05749E-4
4125.000000; 9.69037E-5
4130.859375; 1.05825E-4
4136.718750; 1.11277E-4
4142.578125; 1.08936E-4
4148.437500; 1.12965E-4
4154.296875; 1.06557E-4
4160.156250; 1.08054E-4
4166.015625; 1.03662E-4
4171.875000; 1.02891E-4
4177.734375; 1.10430E-4
4183.593750; 1.02173E-4
4189.453125; 1.06786E-4
4195.312500; 1.10588E-4
4201.171875; 1.07324E-4
4207.031250; 1.09779E-4
4212.890625; 1.06009E-4
4218.750000; 9.63903E-5
4224.609375; 1.04675E-4
4230.468750; 1.10419E-4
4236.328125; 1.05499E-4
4242.187500; 1.14961E-4
4248.046875; 1.18375E-4
4253.906250; 1.04823E-4
4259.765625; 1.08578E-4
4265.625000; 1.13234E-4
4271.484375; 1.20715E-4
4277.343750; 1.04681E-4
4283.203125; 1.04564E-4
4289.062500; 1.01111E-4
4294.921875; 9.17664E-5
4300.781250; 1.02950E-4
4306.640625; 1.04310E-4
4312.500000; 9.94473E-5
4318.359375; 1.04246E-4
4324.218750; 9.84812E-5
4330.078125; 1.03099E-4
4335.937500; 9.57066E-5
4341.796875; 9.78450E-5
4347.656250; 1.11032E-4
4353.515625; 1.20931E-4
4359.375000; 1.13801E-4
4365.234375; 1.08740E-4
4371.093750; 1.09168E-4
4376.953125; 1.09673E-4
4382.812500; 1.08342E-4
4388.671875; 1.08799E-4
4394.531250; 1.00205E-4
4400.390625; 1.13053E-4
4406.250000; 1.12886E-4
4412.109375; 1.02399E-4
4417.968750; 1.01627E-4
4423.828125; 1.05027E-4
4429.687500; 1.01974E-4
4435.546875; 1.04672E-4
4441.406250; 1.04030E-4
4447.265625; 1.14256E-4
4453.125000; 1.14181E-4
4458.984375; 1.15352E-4
4464.843750; 1.07793E-4
4470.703125; 1.07208E-4
4476.562500; 1.09060E-4
4482.421875; 1.26745E-4
4488.281250; 1.21073E-4
4494.140625; 1.19460E-4
4500.000000; 1.01472E-4
4505.859375; 1.04407E-4
4511.718750; 1.11150E-4
4517.578125; 1.22584E-4
4523.437500; 1.09665E-4
4529.296875; 1.12266E-4
4535.156250; 1.03574E-4
4541.015625; 1.06763E-4
4546.875000; 1.06598E-4
4552.734375; 9.82898E-5
4558.593750; 9.64315E-5
4564.453125; 9.79964E-5
4570.312500; 1.04452E-4
4576.171875; 1.03488E-4
4582.031250; 9.46732E-5
4587.890625; 1.03465E-4
4593.750000; 1.13227E-4
4599.609375; 1.07652E-4
4605.468750; 1.04702E-4
4611.328125; 1.06049E-4
4617.187500; 1.21489E-4
4623.046875; 1.18179E-4
4628.906250; 1.09718E-4
4634.765625; 1.14848E-4
4640.625000; 1.09339E-4
4646.484375; 9.52033E-5
4652.343750; 1.02527E-4
4658.203125; 1.09290E-4
4664.062500; 1.18205E-4
