* Measurement data measured by REW V5.31.3
* Source: PCM: default, no input selected, 2, volume: no control
* Format: 8192-point spectrum using Hann window and exponential averaging 0.97 
* Dated: Mar 9, 2025 1:21:43 PM
* REW Settings:
*  C-weighting compensation: Off
*  Target level: 75.0 dB
* Note: OSDEHA MU-OUTPUT; 8192-point spectrum using Hann window and exponential averaging 0.97  Input RMS 2.371 V 2.371 VC, 2.371 VA 2.371 V 22 - 22k UNW 941.8 uV >22k Distortion at 1,000.0 Hz, -32.50 dBFS: Gain: 29.68 dB THD: 0.021 % based on 21 harmonics  [0..22800 Hz] HHD: 0.016 %  [10 .. 22] N: 0.59 %  [0..22800 Hz] N+D: 4.376 mV A THD+N: 0.59 %  [0..22800 Hz] SNR: 44.5 dB ENOB: 13.0 bits 2nd harmonic 0.0052 % 140 deg 3rd harmonic 0.0049 % 76 deg 4th harmonic 0.0047 % 155 deg 5th harmonic 0.0046 % 147 deg 6th harmonic 0.0046 % -122 deg 7th harmonic 0.0047 % -79 deg 8th harmonic 0.0045 % 140 deg 9th harmonic 0.0048 % 146 deg 
* Measurement: OSDEHA MU-OUT 2.37V
* Smoothing: None
* Frequency Step: 5.859375 Hz
* Start Frequency: 5.859375 Hz
*
* Freq(Hz); V(V)
5.859375; 1.76951E-4
11.718750; 2.10291E-4
17.578125; 2.07627E-4
23.437500; 1.94140E-4
29.296875; 1.97691E-4
35.156250; 2.00801E-4
41.015625; 1.85961E-4
46.875000; 3.25436E-4
52.734375; 3.23076E-4
58.593750; 1.73098E-4
64.453125; 1.72221E-4
70.312500; 1.46549E-4
76.171875; 1.54350E-4
82.031250; 1.59158E-4
87.890625; 2.00387E-4
93.750000; 5.81812E-3
99.609375; 1.28857E-2
105.468750; 7.09737E-3
111.328125; 2.08287E-4
117.187500; 1.48355E-4
123.046875; 1.54302E-4
128.906250; 1.38793E-4
134.765625; 1.25480E-4
140.625000; 1.27420E-4
146.484375; 1.40815E-4
152.343750; 1.48070E-4
158.203125; 1.48730E-4
164.062500; 1.47621E-4
169.921875; 1.54220E-4
175.781250; 1.47440E-4
181.640625; 1.49910E-4
187.500000; 1.40544E-4
193.359375; 5.87979E-4
199.218750; 1.38717E-3
205.078125; 8.50612E-4
210.937500; 1.32277E-4
216.796875; 1.31127E-4
222.656250; 1.32924E-4
228.515625; 1.31467E-4
234.375000; 1.40586E-4
240.234375; 1.33644E-4
246.093750; 1.28370E-4
251.953125; 1.46201E-4
257.812500; 1.34831E-4
263.671875; 1.30626E-4
269.531250; 1.30883E-4
275.390625; 1.13946E-4
281.250000; 1.21367E-4
287.109375; 1.37187E-4
292.968750; 1.88173E-4
298.828125; 3.29601E-4
304.687500; 2.44559E-4
310.546875; 1.47667E-4
316.406250; 1.40766E-4
322.265625; 1.24050E-4
328.125000; 1.17261E-4
333.984375; 1.17430E-4
339.843750; 1.28299E-4
345.703125; 1.30858E-4
351.562500; 1.23469E-4
357.421875; 1.32111E-4
363.281250; 1.38380E-4
369.140625; 1.21312E-4
375.000000; 1.26117E-4
380.859375; 1.28540E-4
386.718750; 1.33813E-4
392.578125; 1.56666E-4
398.437500; 2.68899E-4
404.296875; 2.18850E-4
410.156250; 1.31785E-4
416.015625; 1.18520E-4
421.875000; 1.19217E-4
427.734375; 1.15316E-4
433.593750; 1.12969E-4
439.453125; 1.21794E-4
445.312500; 1.30181E-4
451.171875; 1.42816E-4
457.031250; 1.43723E-4
462.890625; 1.32078E-4
468.750000; 1.39529E-4
474.609375; 1.37027E-4
480.468750; 1.18478E-4
486.328125; 1.20649E-4
492.187500; 1.15270E-4
498.046875; 1.22217E-4
503.906250; 1.16418E-4
509.765625; 1.07713E-4
515.625000; 1.12304E-4
521.484375; 1.23171E-4
527.343750; 1.32393E-4
533.203125; 1.24729E-4
539.062500; 1.09668E-4
544.921875; 1.27084E-4
550.781250; 1.13432E-4
556.640625; 1.07453E-4
562.500000; 1.19075E-4
568.359375; 1.15945E-4
574.218750; 1.14206E-4
580.078125; 1.18760E-4
585.937500; 1.17921E-4
591.796875; 1.19771E-4
597.656250; 1.41743E-4
603.515625; 1.36279E-4
609.375000; 1.13959E-4
615.234375; 1.09873E-4
621.093750; 1.08181E-4
626.953125; 1.16908E-4
632.812500; 1.16053E-4
638.671875; 1.20604E-4
644.531250; 1.22117E-4
650.390625; 1.21649E-4
656.250000; 1.22857E-4
662.109375; 1.29616E-4
667.968750; 1.25512E-4
673.828125; 1.25101E-4
679.687500; 1.18807E-4
685.546875; 1.30318E-4
691.406250; 1.28245E-4
697.265625; 1.23112E-4
703.125000; 1.12739E-4
708.984375; 1.08550E-4
714.843750; 9.98338E-5
720.703125; 1.11252E-4
726.562500; 1.20297E-4
732.421875; 1.18453E-4
738.281250; 1.21559E-4
744.140625; 1.16060E-4
750.000000; 1.05837E-4
755.859375; 1.08118E-4
761.718750; 1.11886E-4
767.578125; 1.28115E-4
773.437500; 1.30653E-4
779.296875; 1.35415E-4
785.156250; 1.22993E-4
791.015625; 1.19155E-4
796.875000; 1.19749E-4
802.734375; 1.24122E-4
808.593750; 1.30999E-4
814.453125; 1.16089E-4
820.312500; 1.23128E-4
826.171875; 1.15712E-4
832.031250; 1.18063E-4
837.890625; 1.20667E-4
843.750000; 1.13900E-4
849.609375; 1.22786E-4
855.468750; 1.25464E-4
861.328125; 1.35578E-4
867.187500; 1.29731E-4
873.046875; 1.29906E-4
878.906250; 1.22875E-4
884.765625; 1.53223E-4
890.625000; 1.74998E-4
896.484375; 1.81267E-4
902.343750; 1.80521E-4
908.203125; 2.01172E-4
914.062500; 2.53370E-4
919.921875; 2.79794E-4
925.781250; 3.30205E-4
931.640625; 4.30796E-4
937.500000; 5.73919E-4
943.359375; 7.22897E-4
949.218750; 1.02595E-3
955.078125; 1.48955E-3
960.937500; 2.25502E-3
966.796875; 3.71466E-3
972.656250; 6.72558E-3
978.515625; 1.43308E-2
984.375000; 4.01057E-2
990.234375; 2.20550E-1
996.093750; 1.76445E0
1001.953125; 2.20556E0
1007.812500; 6.30159E-1
1013.671875; 6.30206E-2
1019.531250; 1.93877E-2
1025.390625; 8.48250E-3
1031.250000; 4.46790E-3
1037.109375; 2.63767E-3
1042.968750; 1.68832E-3
1048.828125; 1.16489E-3
1054.687500; 8.12470E-4
1060.546875; 6.08717E-4
1066.406250; 4.64894E-4
1072.265625; 3.87656E-4
1078.125000; 2.85566E-4
1083.984375; 2.53981E-4
1089.843750; 2.18920E-4
1095.703125; 1.80038E-4
1101.562500; 1.76101E-4
1107.421875; 1.48989E-4
1113.281250; 1.35365E-4
1119.140625; 1.48491E-4
1125.000000; 1.31317E-4
1130.859375; 1.22074E-4
1136.718750; 1.20383E-4
1142.578125; 1.11819E-4
1148.437500; 1.28751E-4
1154.296875; 1.22835E-4
1160.156250; 1.13873E-4
1166.015625; 1.25625E-4
1171.875000; 1.24455E-4
1177.734375; 1.32865E-4
1183.593750; 1.25741E-4
1189.453125; 1.24749E-4
1195.312500; 1.26445E-4
1201.171875; 1.13614E-4
1207.031250; 1.05973E-4
1212.890625; 1.15103E-4
1218.750000; 1.19391E-4
1224.609375; 1.09506E-4
1230.468750; 1.11906E-4
1236.328125; 1.09559E-4
1242.187500; 9.91618E-5
1248.046875; 1.30983E-4
1253.906250; 1.24109E-4
1259.765625; 1.00137E-4
1265.625000; 1.01318E-4
1271.484375; 1.17170E-4
1277.343750; 1.26144E-4
1283.203125; 1.24872E-4
1289.062500; 1.09561E-4
1294.921875; 1.09706E-4
1300.781250; 9.70864E-5
1306.640625; 1.04400E-4
1312.500000; 1.00185E-4
1318.359375; 1.14041E-4
1324.218750; 1.21032E-4
1330.078125; 1.14852E-4
1335.937500; 1.05136E-4
1341.796875; 1.17195E-4
1347.656250; 1.19215E-4
1353.515625; 1.08676E-4
1359.375000; 1.11074E-4
1365.234375; 1.27717E-4
1371.093750; 1.23582E-4
1376.953125; 1.18404E-4
1382.812500; 1.11869E-4
1388.671875; 1.07042E-4
1394.531250; 1.00168E-4
1400.390625; 1.04333E-4
1406.250000; 1.13740E-4
1412.109375; 1.17869E-4
1417.968750; 1.21646E-4
1423.828125; 1.22288E-4
1429.687500; 1.21828E-4
1435.546875; 1.10478E-4
1441.406250; 1.06459E-4
1447.265625; 1.25703E-4
1453.125000; 1.19972E-4
1458.984375; 1.13390E-4
1464.843750; 1.29890E-4
1470.703125; 1.20300E-4
1476.562500; 9.57757E-5
1482.421875; 1.08975E-4
1488.281250; 1.07683E-4
1494.140625; 1.01747E-4
1500.000000; 1.04826E-4
1505.859375; 1.07688E-4
1511.718750; 1.07410E-4
1517.578125; 1.04721E-4
1523.437500; 1.18181E-4
1529.296875; 1.13863E-4
1535.156250; 1.16849E-4
1541.015625; 1.09539E-4
1546.875000; 1.04648E-4
1552.734375; 1.13452E-4
1558.593750; 1.03254E-4
1564.453125; 9.06153E-5
1570.312500; 1.12264E-4
1576.171875; 1.15934E-4
1582.031250; 1.21277E-4
1587.890625; 1.22144E-4
1593.750000; 1.25954E-4
1599.609375; 1.32008E-4
1605.468750; 1.18351E-4
1611.328125; 1.14072E-4
1617.187500; 1.19369E-4
1623.046875; 1.21478E-4
1628.906250; 1.14411E-4
1634.765625; 1.06045E-4
1640.625000; 1.03104E-4
1646.484375; 1.07955E-4
1652.343750; 1.22208E-4
1658.203125; 1.23808E-4
1664.062500; 1.14732E-4
1669.921875; 1.13604E-4
1675.781250; 1.14986E-4
1681.640625; 1.05926E-4
1687.500000; 1.16543E-4
1693.359375; 1.19978E-4
1699.218750; 1.02527E-4
1705.078125; 9.97596E-5
1710.937500; 9.73323E-5
1716.796875; 9.25225E-5
1722.656250; 9.89061E-5
1728.515625; 1.11509E-4
1734.375000; 1.16523E-4
1740.234375; 1.12920E-4
1746.093750; 1.09241E-4
1751.953125; 1.14248E-4
1757.812500; 1.22278E-4
1763.671875; 1.14630E-4
1769.531250; 1.10585E-4
1775.390625; 1.15428E-4
1781.250000; 1.17856E-4
1787.109375; 1.07033E-4
1792.968750; 1.08897E-4
1798.828125; 1.08378E-4
1804.687500; 1.07728E-4
1810.546875; 1.16797E-4
1816.406250; 1.14201E-4
1822.265625; 1.19494E-4
1828.125000; 1.25128E-4
1833.984375; 1.23822E-4
1839.843750; 1.08934E-4
1845.703125; 1.05190E-4
1851.562500; 1.16827E-4
1857.421875; 1.20417E-4
1863.281250; 1.11654E-4
1869.140625; 1.11833E-4
1875.000000; 1.22066E-4
1880.859375; 1.05265E-4
1886.718750; 1.18439E-4
1892.578125; 1.20451E-4
1898.437500; 1.17069E-4
1904.296875; 1.06692E-4
1910.156250; 1.07400E-4
1916.015625; 1.14341E-4
1921.875000; 1.19390E-4
1927.734375; 1.18533E-4
1933.593750; 1.15301E-4
1939.453125; 1.05320E-4
1945.312500; 1.08280E-4
1951.171875; 1.11985E-4
1957.031250; 1.12886E-4
1962.890625; 1.13590E-4
1968.750000; 1.22099E-4
1974.609375; 1.37872E-4
1980.468750; 1.29799E-4
1986.328125; 1.13389E-4
1992.187500; 1.13623E-4
1998.046875; 1.32001E-4
2003.906250; 1.24435E-4
2009.765625; 1.23837E-4
2015.625000; 1.21091E-4
2021.484375; 1.11973E-4
2027.343750; 1.04494E-4
2033.203125; 1.14256E-4
2039.062500; 1.20342E-4
2044.921875; 1.05292E-4
2050.781250; 1.17906E-4
2056.640625; 1.20087E-4
2062.500000; 1.08150E-4
2068.359375; 1.07503E-4
2074.218750; 1.00301E-4
2080.078125; 1.13795E-4
2085.937500; 1.10178E-4
2091.796875; 1.16530E-4
2097.656250; 1.07651E-4
2103.515625; 1.07715E-4
2109.375000; 1.04166E-4
2115.234375; 1.06141E-4
2121.093750; 1.08819E-4
2126.953125; 1.07384E-4
2132.812500; 1.20616E-4
2138.671875; 1.15673E-4
2144.531250; 1.13032E-4
2150.390625; 1.13617E-4
2156.250000; 1.16549E-4
2162.109375; 1.02769E-4
2167.968750; 9.66630E-5
2173.828125; 1.10419E-4
2179.687500; 1.04726E-4
2185.546875; 1.05203E-4
2191.406250; 1.07204E-4
2197.265625; 1.08990E-4
2203.125000; 1.11394E-4
2208.984375; 1.10121E-4
2214.843750; 1.23133E-4
2220.703125; 1.14896E-4
2226.562500; 1.10275E-4
2232.421875; 1.06096E-4
2238.281250; 1.08984E-4
2244.140625; 1.07274E-4
2250.000000; 9.97519E-5
2255.859375; 1.10789E-4
2261.718750; 1.13425E-4
2267.578125; 1.13465E-4
2273.437500; 1.14507E-4
2279.296875; 1.06135E-4
2285.156250; 1.04750E-4
2291.015625; 1.03318E-4
2296.875000; 1.05792E-4
2302.734375; 1.07879E-4
2308.593750; 1.06854E-4
2314.453125; 1.16859E-4
2320.312500; 1.23170E-4
2326.171875; 1.16834E-4
2332.031250; 1.16332E-4
2337.890625; 1.13835E-4
2343.750000; 1.00479E-4
2349.609375; 1.11264E-4
2355.468750; 1.10928E-4
2361.328125; 1.04053E-4
2367.187500; 1.03146E-4
2373.046875; 1.13943E-4
2378.906250; 1.25176E-4
2384.765625; 1.12183E-4
2390.625000; 1.04844E-4
2396.484375; 1.16634E-4
2402.343750; 1.13847E-4
2408.203125; 1.03013E-4
2414.062500; 1.14342E-4
2419.921875; 1.09798E-4
2425.781250; 1.04397E-4
2431.640625; 1.12430E-4
2437.500000; 1.14378E-4
2443.359375; 1.15603E-4
2449.218750; 1.12652E-4
2455.078125; 1.12741E-4
2460.937500; 1.20459E-4
2466.796875; 1.19592E-4
2472.656250; 1.15468E-4
2478.515625; 1.07455E-4
2484.375000; 1.06616E-4
2490.234375; 1.07294E-4
2496.093750; 1.09447E-4
2501.953125; 1.10672E-4
2507.812500; 1.20480E-4
2513.671875; 1.19768E-4
2519.531250; 1.12868E-4
2525.390625; 1.21025E-4
2531.250000; 1.01807E-4
2537.109375; 9.91558E-5
2542.968750; 9.58006E-5
2548.828125; 1.07395E-4
2554.687500; 1.12610E-4
2560.546875; 1.07314E-4
2566.406250; 1.07564E-4
2572.265625; 1.09807E-4
2578.125000; 1.05136E-4
2583.984375; 1.14703E-4
2589.843750; 1.10106E-4
2595.703125; 1.10353E-4
2601.562500; 1.19066E-4
2607.421875; 1.21179E-4
2613.281250; 1.18917E-4
2619.140625; 1.10059E-4
2625.000000; 1.06835E-4
2630.859375; 1.10692E-4
2636.718750; 1.22361E-4
2642.578125; 1.15117E-4
2648.437500; 1.08989E-4
2654.296875; 1.01638E-4
2660.156250; 1.06768E-4
2666.015625; 9.54268E-5
2671.875000; 1.02053E-4
2677.734375; 9.66107E-5
2683.593750; 1.05735E-4
2689.453125; 1.04648E-4
2695.312500; 1.19833E-4
2701.171875; 1.05369E-4
2707.031250; 1.01185E-4
2712.890625; 1.06189E-4
2718.750000; 1.05599E-4
2724.609375; 9.74411E-5
2730.468750; 9.90421E-5
2736.328125; 1.23388E-4
2742.187500; 1.13864E-4
2748.046875; 1.09044E-4
2753.906250; 1.08995E-4
2759.765625; 1.12950E-4
2765.625000; 1.20146E-4
2771.484375; 1.09983E-4
2777.343750; 1.01258E-4
2783.203125; 1.11516E-4
2789.062500; 1.13726E-4
2794.921875; 1.04201E-4
2800.781250; 1.04555E-4
2806.640625; 1.07334E-4
2812.500000; 1.17672E-4
2818.359375; 1.14392E-4
2824.218750; 1.05794E-4
2830.078125; 1.15059E-4
2835.937500; 1.02741E-4
2841.796875; 1.02486E-4
2847.656250; 1.08203E-4
2853.515625; 1.14117E-4
2859.375000; 1.18617E-4
2865.234375; 1.13331E-4
2871.093750; 1.15992E-4
2876.953125; 1.14879E-4
2882.812500; 1.13764E-4
2888.671875; 1.20609E-4
2894.531250; 1.21279E-4
2900.390625; 1.12555E-4
2906.250000; 1.12028E-4
2912.109375; 1.15696E-4
2917.968750; 1.17115E-4
2923.828125; 1.22157E-4
2929.687500; 1.17063E-4
2935.546875; 1.08987E-4
2941.406250; 9.53263E-5
2947.265625; 1.00247E-4
2953.125000; 1.03502E-4
2958.984375; 9.60676E-5
2964.843750; 1.04849E-4
2970.703125; 1.05963E-4
2976.562500; 1.03229E-4
2982.421875; 1.06115E-4
2988.281250; 1.11199E-4
2994.140625; 1.20256E-4
3000.000000; 1.28021E-4
3005.859375; 1.19531E-4
3011.718750; 1.09554E-4
3017.578125; 9.88816E-5
3023.437500; 1.12756E-4
3029.296875; 1.04254E-4
3035.156250; 1.06569E-4
3041.015625; 1.09689E-4
3046.875000; 1.17696E-4
3052.734375; 1.22583E-4
3058.593750; 1.21200E-4
3064.453125; 1.15345E-4
3070.312500; 1.15115E-4
3076.171875; 1.10069E-4
3082.031250; 1.20065E-4
3087.890625; 1.19025E-4
3093.750000; 1.06149E-4
3099.609375; 1.09770E-4
3105.468750; 1.18454E-4
3111.328125; 1.06347E-4
3117.187500; 1.04595E-4
3123.046875; 1.07753E-4
3128.906250; 1.17620E-4
3134.765625; 1.14890E-4
3140.625000; 1.11114E-4
3146.484375; 9.90889E-5
3152.343750; 1.01547E-4
3158.203125; 1.07544E-4
3164.062500; 1.10184E-4
3169.921875; 9.16984E-5
3175.781250; 1.08960E-4
3181.640625; 1.16297E-4
3187.500000; 1.05014E-4
3193.359375; 1.01209E-4
3199.218750; 1.11094E-4
3205.078125; 1.16414E-4
3210.937500; 1.06369E-4
3216.796875; 1.04922E-4
3222.656250; 1.09812E-4
3228.515625; 1.12922E-4
3234.375000; 1.16613E-4
3240.234375; 1.03845E-4
3246.093750; 1.04155E-4
3251.953125; 1.09956E-4
3257.812500; 1.05107E-4
3263.671875; 1.06622E-4
3269.531250; 1.13054E-4
3275.390625; 1.19669E-4
3281.250000; 1.16163E-4
3287.109375; 1.14200E-4
3292.968750; 1.17996E-4
3298.828125; 1.13020E-4
3304.687500; 1.11193E-4
3310.546875; 1.09791E-4
3316.406250; 1.09486E-4
3322.265625; 1.11590E-4
3328.125000; 1.10454E-4
3333.984375; 1.02830E-4
3339.843750; 9.64275E-5
3345.703125; 1.03870E-4
3351.562500; 1.16613E-4
3357.421875; 1.02227E-4
3363.281250; 1.01941E-4
3369.140625; 1.09607E-4
3375.000000; 1.13830E-4
3380.859375; 1.12183E-4
3386.718750; 1.24240E-4
3392.578125; 1.21392E-4
3398.437500; 1.12930E-4
3404.296875; 1.01853E-4
3410.156250; 1.19501E-4
3416.015625; 1.11333E-4
3421.875000; 1.13062E-4
3427.734375; 1.10611E-4
3433.593750; 1.02141E-4
3439.453125; 1.03016E-4
3445.312500; 1.12201E-4
3451.171875; 1.15565E-4
3457.031250; 1.13208E-4
3462.890625; 1.13094E-4
3468.750000; 1.09726E-4
3474.609375; 1.06159E-4
3480.468750; 1.09458E-4
3486.328125; 1.03639E-4
3492.187500; 1.09350E-4
3498.046875; 1.07939E-4
3503.906250; 1.18284E-4
3509.765625; 1.14436E-4
3515.625000; 1.05149E-4
3521.484375; 1.02194E-4
3527.343750; 1.04571E-4
3533.203125; 1.10336E-4
3539.062500; 1.11514E-4
3544.921875; 1.19151E-4
3550.781250; 1.23130E-4
3556.640625; 1.06806E-4
3562.500000; 1.11285E-4
3568.359375; 1.06259E-4
3574.218750; 9.61173E-5
3580.078125; 1.08587E-4
3585.937500; 1.03057E-4
3591.796875; 1.08471E-4
3597.656250; 1.08043E-4
3603.515625; 9.57343E-5
3609.375000; 1.06811E-4
3615.234375; 9.59701E-5
3621.093750; 9.16405E-5
3626.953125; 9.80896E-5
3632.812500; 9.59148E-5
3638.671875; 1.04865E-4
3644.531250; 1.16772E-4
3650.390625; 1.23692E-4
3656.250000; 1.25533E-4
3662.109375; 1.09687E-4
3667.968750; 1.07835E-4
3673.828125; 1.11239E-4
3679.687500; 1.18507E-4
3685.546875; 1.04040E-4
3691.406250; 9.43315E-5
3697.265625; 9.75139E-5
3703.125000; 9.92366E-5
3708.984375; 1.12732E-4
3714.843750; 1.17705E-4
3720.703125; 1.00261E-4
3726.562500; 1.05986E-4
3732.421875; 1.15675E-4
3738.281250; 1.24672E-4
3744.140625; 1.29939E-4
3750.000000; 1.25462E-4
3755.859375; 1.12320E-4
3761.718750; 1.10795E-4
3767.578125; 1.07771E-4
3773.437500; 1.04996E-4
3779.296875; 1.09773E-4
3785.156250; 1.00809E-4
3791.015625; 1.12337E-4
3796.875000; 1.02516E-4
3802.734375; 1.07105E-4
3808.593750; 1.06321E-4
3814.453125; 1.18108E-4
3820.312500; 1.04976E-4
3826.171875; 1.07606E-4
3832.031250; 1.17481E-4
3837.890625; 1.15712E-4
3843.750000; 1.05331E-4
3849.609375; 1.05159E-4
3855.468750; 1.02753E-4
3861.328125; 1.04890E-4
3867.187500; 1.04874E-4
3873.046875; 9.67593E-5
3878.906250; 9.70919E-5
3884.765625; 1.00212E-4
3890.625000; 1.01451E-4
3896.484375; 1.15984E-4
3902.343750; 1.24755E-4
3908.203125; 1.11968E-4
3914.062500; 1.11210E-4
3919.921875; 1.14188E-4
3925.781250; 1.17001E-4
3931.640625; 1.08537E-4
3937.500000; 1.03684E-4
3943.359375; 1.17263E-4
3949.218750; 1.13801E-4
3955.078125; 9.62606E-5
3960.937500; 1.00405E-4
3966.796875; 1.17790E-4
3972.656250; 1.19147E-4
3978.515625; 1.16218E-4
3984.375000; 1.11905E-4
3990.234375; 1.10595E-4
3996.093750; 1.09013E-4
4001.953125; 1.15476E-4
4007.812500; 1.19583E-4
4013.671875; 1.09432E-4
4019.531250; 9.54413E-5
4025.390625; 9.92377E-5
4031.250000; 1.00878E-4
4037.109375; 1.06174E-4
4042.968750; 1.00520E-4
4048.828125; 1.13764E-4
4054.687500; 1.17381E-4
4060.546875; 1.18615E-4
4066.406250; 1.16990E-4
4072.265625; 1.06865E-4
4078.125000; 1.04985E-4
4083.984375; 9.40574E-5
4089.843750; 9.09015E-5
4095.703125; 9.56409E-5
4101.562500; 1.09764E-4
4107.421875; 1.05632E-4
4113.281250; 9.43719E-5
4119.140625; 1.03657E-4
4125.000000; 1.08582E-4
4130.859375; 1.08542E-4
4136.718750; 9.82409E-5
4142.578125; 1.08059E-4
4148.437500; 1.17448E-4
4154.296875; 1.24145E-4
4160.156250; 1.17580E-4
4166.015625; 1.10622E-4
4171.875000; 1.14801E-4
4177.734375; 1.13635E-4
4183.593750; 1.12025E-4
4189.453125; 1.14719E-4
4195.312500; 1.06205E-4
4201.171875; 1.09217E-4
4207.031250; 1.08663E-4
4212.890625; 1.16573E-4
4218.750000; 1.02891E-4
4224.609375; 1.03430E-4
4230.468750; 1.04320E-4
4236.328125; 1.06145E-4
4242.187500; 1.08180E-4
4248.046875; 9.56691E-5
4253.906250; 9.98716E-5
4259.765625; 9.77569E-5
4265.625000; 9.39017E-5
4271.484375; 1.04276E-4
4277.343750; 1.10081E-4
4283.203125; 1.10796E-4
4289.062500; 1.17081E-4
4294.921875; 1.14656E-4
4300.781250; 1.10161E-4
4306.640625; 9.78720E-5
4312.500000; 8.81916E-5
4318.359375; 1.05403E-4
4324.218750; 1.09533E-4
4330.078125; 1.09433E-4
4335.937500; 1.04736E-4
4341.796875; 1.14065E-4
4347.656250; 1.15633E-4
4353.515625; 1.01515E-4
4359.375000; 1.02896E-4
4365.234375; 9.93348E-5
4371.093750; 1.07206E-4
4376.953125; 1.23945E-4
4382.812500; 1.17416E-4
4388.671875; 1.12442E-4
4394.531250; 1.01696E-4
4400.390625; 1.12233E-4
4406.250000; 1.19594E-4
4412.109375; 1.03412E-4
4417.968750; 9.90832E-5
4423.828125; 1.07695E-4
4429.687500; 1.18202E-4
4435.546875; 1.14695E-4
4441.406250; 1.19100E-4
4447.265625; 1.12598E-4
4453.125000; 1.15851E-4
4458.984375; 1.17120E-4
4464.843750; 1.12544E-4
4470.703125; 1.13973E-4
4476.562500; 1.14791E-4
4482.421875; 1.17078E-4
4488.281250; 1.04761E-4
4494.140625; 9.27347E-5
4500.000000; 1.09911E-4
4505.859375; 1.05541E-4
4511.718750; 1.06405E-4
4517.578125; 1.03632E-4
4523.437500; 1.12797E-4
4529.296875; 1.10825E-4
4535.156250; 1.03272E-4
4541.015625; 8.62770E-5
4546.875000; 1.02351E-4
4552.734375; 1.08682E-4
4558.593750; 1.02572E-4
4564.453125; 1.05864E-4
4570.312500; 1.13764E-4
4576.171875; 1.08955E-4
4582.031250; 1.04598E-4
4587.890625; 9.83885E-5
4593.750000; 1.10883E-4
4599.609375; 1.12939E-4
4605.468750; 1.10235E-4
4611.328125; 1.07162E-4
4617.187500; 1.03181E-4
4623.046875; 1.09224E-4
4628.906250; 1.16643E-4
4634.765625; 1.11306E-4
4640.625000; 1.07969E-4
4646.484375; 1.13396E-4
4652.343750; 1.10358E-4
4658.203125; 1.11548E-4
4664.062500; 9.95523E-5
