* Measurement data measured by REW V5.31.3
* Source: PCM: default, no input selected, 2, volume: no control
* Format: 8192-point spectrum using Hann window and exponential averaging 0.97 
* Dated: Mar 9, 2025 1:09:01 PM
* REW Settings:
*  C-weighting compensation: Off
*  Target level: 75.0 dB
* Note: OSDEHA MU-OUTPUT; 8192-point spectrum using Hann window and exponential averaging 0.97  Input RMS 3.164 V 3.164 VC, 3.164 VA 3.164 V 22 - 22k UNW 956.6 uV >22k Distortion at 1,000.0 Hz, -30.00 dBFS: Gain: 29.68 dB THD: 0.016 % based on 21 harmonics  [0..22800 Hz] HHD: 0.012 %  [10 .. 22] N: 0.44 %  [0..22800 Hz] N+D: 4.339 mV A THD+N: 0.44 %  [0..22800 Hz] SNR: 47.1 dB ENOB: 13.0 bits 2nd harmonic 0.0039 % 151 deg 3rd harmonic 0.0034 % -89 deg 4th harmonic 0.0034 % -48 deg 5th harmonic 0.0034 % -126 deg 6th harmonic 0.0035 % 78 deg 7th harmonic 0.0032 % 24 deg 8th harmonic 0.0034 % -90 deg 9th harmonic 0.0033 % -165 deg 
* Measurement: OSDEHA MU-OUT 3.16V
* Smoothing: None
* Frequency Step: 5.859375 Hz
* Start Frequency: 5.859375 Hz
*
* Freq(Hz); V(V)
5.859375; 2.44555E-4
11.718750; 2.93165E-4
17.578125; 2.55128E-4
23.437500; 1.91945E-4
29.296875; 1.85980E-4
35.156250; 1.63864E-4
41.015625; 1.75597E-4
46.875000; 3.25381E-4
52.734375; 3.34104E-4
58.593750; 1.88580E-4
64.453125; 1.73562E-4
70.312500; 1.52311E-4
76.171875; 1.53115E-4
82.031250; 1.84988E-4
87.890625; 2.02833E-4
93.750000; 5.78032E-3
99.609375; 1.28182E-2
105.468750; 7.05569E-3
111.328125; 1.94300E-4
117.187500; 1.56639E-4
123.046875; 1.52146E-4
128.906250; 1.25331E-4
134.765625; 1.29921E-4
140.625000; 1.45629E-4
146.484375; 1.59262E-4
152.343750; 1.57275E-4
158.203125; 1.20526E-4
164.062500; 1.17571E-4
169.921875; 1.28642E-4
175.781250; 1.37276E-4
181.640625; 1.31408E-4
187.500000; 1.31735E-4
193.359375; 5.37641E-4
199.218750; 1.31903E-3
205.078125; 7.99688E-4
210.937500; 1.30928E-4
216.796875; 1.24636E-4
222.656250; 1.05359E-4
228.515625; 1.20962E-4
234.375000; 1.14915E-4
240.234375; 1.20381E-4
246.093750; 1.23595E-4
251.953125; 1.17333E-4
257.812500; 1.28966E-4
263.671875; 1.27602E-4
269.531250; 1.24856E-4
275.390625; 1.20250E-4
281.250000; 1.16183E-4
287.109375; 1.28880E-4
292.968750; 1.53877E-4
298.828125; 3.20840E-4
304.687500; 2.29145E-4
310.546875; 1.05314E-4
316.406250; 1.05753E-4
322.265625; 1.18617E-4
328.125000; 1.24449E-4
333.984375; 1.10138E-4
339.843750; 1.13223E-4
345.703125; 1.14388E-4
351.562500; 1.27201E-4
357.421875; 1.20528E-4
363.281250; 1.16941E-4
369.140625; 1.24926E-4
375.000000; 1.25768E-4
380.859375; 1.06926E-4
386.718750; 1.10100E-4
392.578125; 1.25481E-4
398.437500; 2.69440E-4
404.296875; 2.19597E-4
410.156250; 1.18076E-4
416.015625; 1.09891E-4
421.875000; 1.09702E-4
427.734375; 1.13958E-4
433.593750; 1.18487E-4
439.453125; 1.15789E-4
445.312500; 9.90675E-5
451.171875; 1.04205E-4
457.031250; 1.12078E-4
462.890625; 1.10589E-4
468.750000; 1.09008E-4
474.609375; 1.18368E-4
480.468750; 1.18181E-4
486.328125; 1.16045E-4
492.187500; 1.24911E-4
498.046875; 1.47713E-4
503.906250; 1.32076E-4
509.765625; 1.17972E-4
515.625000; 1.08039E-4
521.484375; 9.86422E-5
527.343750; 1.17981E-4
533.203125; 1.19333E-4
539.062500; 1.14382E-4
544.921875; 1.17187E-4
550.781250; 1.22244E-4
556.640625; 1.24166E-4
562.500000; 1.13064E-4
568.359375; 9.78650E-5
574.218750; 1.07143E-4
580.078125; 9.96554E-5
585.937500; 1.08814E-4
591.796875; 1.13863E-4
597.656250; 1.11638E-4
603.515625; 1.10513E-4
609.375000; 1.22415E-4
615.234375; 1.16000E-4
621.093750; 1.06033E-4
626.953125; 1.09621E-4
632.812500; 1.02821E-4
638.671875; 1.06935E-4
644.531250; 9.76856E-5
650.390625; 1.07978E-4
656.250000; 1.25234E-4
662.109375; 1.30332E-4
667.968750; 1.15698E-4
673.828125; 1.10207E-4
679.687500; 1.06505E-4
685.546875; 1.00913E-4
691.406250; 1.13301E-4
697.265625; 1.13017E-4
703.125000; 1.08185E-4
708.984375; 1.16694E-4
714.843750; 1.03321E-4
720.703125; 9.43520E-5
726.562500; 1.08906E-4
732.421875; 1.13157E-4
738.281250; 1.14396E-4
744.140625; 1.30127E-4
750.000000; 1.41041E-4
755.859375; 1.22939E-4
761.718750; 1.09395E-4
767.578125; 1.11053E-4
773.437500; 1.18093E-4
779.296875; 1.25421E-4
785.156250; 1.11192E-4
791.015625; 1.14580E-4
796.875000; 1.22926E-4
802.734375; 1.16667E-4
808.593750; 1.15269E-4
814.453125; 1.02946E-4
820.312500; 1.07471E-4
826.171875; 1.10121E-4
832.031250; 1.21595E-4
837.890625; 1.16756E-4
843.750000; 1.34508E-4
849.609375; 1.36216E-4
855.468750; 1.25694E-4
861.328125; 1.32184E-4
867.187500; 1.29693E-4
873.046875; 1.47450E-4
878.906250; 1.48615E-4
884.765625; 1.51973E-4
890.625000; 1.87978E-4
896.484375; 1.98369E-4
902.343750; 2.18264E-4
908.203125; 2.50762E-4
914.062500; 3.01218E-4
919.921875; 3.53124E-4
925.781250; 4.42075E-4
931.640625; 5.62448E-4
937.500000; 7.47268E-4
943.359375; 9.69406E-4
949.218750; 1.37537E-3
955.078125; 1.95733E-3
960.937500; 3.02576E-3
966.796875; 4.94058E-3
972.656250; 8.99866E-3
978.515625; 1.90995E-2
984.375000; 5.35327E-2
990.234375; 2.94336E-1
996.093750; 2.35469E0
1001.953125; 2.94335E0
1007.812500; 8.40960E-1
1013.671875; 8.40881E-2
1019.531250; 2.58742E-2
1025.390625; 1.13179E-2
1031.250000; 5.96370E-3
1037.109375; 3.53132E-3
1042.968750; 2.25240E-3
1048.828125; 1.53154E-3
1054.687500; 1.07647E-3
1060.546875; 8.36930E-4
1066.406250; 5.90339E-4
1072.265625; 4.88935E-4
1078.125000; 3.74259E-4
1083.984375; 3.21966E-4
1089.843750; 2.68640E-4
1095.703125; 2.27413E-4
1101.562500; 2.02175E-4
1107.421875; 1.84858E-4
1113.281250; 1.76115E-4
1119.140625; 1.51252E-4
1125.000000; 1.39421E-4
1130.859375; 1.41961E-4
1136.718750; 1.31925E-4
1142.578125; 1.13606E-4
1148.437500; 1.33149E-4
1154.296875; 1.23430E-4
1160.156250; 1.31607E-4
1166.015625; 1.14448E-4
1171.875000; 1.14836E-4
1177.734375; 1.13354E-4
1183.593750; 1.15450E-4
1189.453125; 1.04623E-4
1195.312500; 1.14949E-4
1201.171875; 1.18257E-4
1207.031250; 1.11930E-4
1212.890625; 1.31756E-4
1218.750000; 1.21468E-4
1224.609375; 1.12039E-4
1230.468750; 1.11224E-4
1236.328125; 1.06008E-4
1242.187500; 1.08120E-4
1248.046875; 1.02240E-4
1253.906250; 1.09261E-4
1259.765625; 1.14953E-4
1265.625000; 1.09005E-4
1271.484375; 1.00064E-4
1277.343750; 1.03509E-4
1283.203125; 1.03146E-4
1289.062500; 1.06621E-4
1294.921875; 1.10787E-4
1300.781250; 1.18262E-4
1306.640625; 1.21807E-4
1312.500000; 1.19615E-4
1318.359375; 1.17373E-4
1324.218750; 1.12709E-4
1330.078125; 9.46608E-5
1335.937500; 9.58311E-5
1341.796875; 1.04560E-4
1347.656250; 1.07218E-4
1353.515625; 1.14400E-4
1359.375000; 1.13816E-4
1365.234375; 1.05097E-4
1371.093750; 1.13197E-4
1376.953125; 1.09465E-4
1382.812500; 1.23620E-4
1388.671875; 1.21106E-4
1394.531250; 1.05983E-4
1400.390625; 1.04628E-4
1406.250000; 9.68860E-5
1412.109375; 1.03437E-4
1417.968750; 1.17261E-4
1423.828125; 1.09946E-4
1429.687500; 1.04414E-4
1435.546875; 1.04419E-4
1441.406250; 1.09226E-4
1447.265625; 1.09756E-4
1453.125000; 1.15509E-4
1458.984375; 1.02089E-4
1464.843750; 1.10873E-4
1470.703125; 1.14603E-4
1476.562500; 1.20998E-4
1482.421875; 1.07998E-4
1488.281250; 9.77763E-5
1494.140625; 1.03562E-4
1500.000000; 1.08473E-4
1505.859375; 1.10797E-4
1511.718750; 1.04145E-4
1517.578125; 1.02581E-4
1523.437500; 9.49689E-5
1529.296875; 1.01500E-4
1535.156250; 1.08826E-4
1541.015625; 1.06064E-4
1546.875000; 1.28096E-4
1552.734375; 1.26901E-4
1558.593750; 1.21026E-4
1564.453125; 1.16066E-4
1570.312500; 1.14456E-4
1576.171875; 1.19586E-4
1582.031250; 1.13943E-4
1587.890625; 1.09732E-4
1593.750000; 1.05106E-4
1599.609375; 9.30888E-5
1605.468750; 1.09929E-4
1611.328125; 1.24461E-4
1617.187500; 1.07424E-4
1623.046875; 1.08621E-4
1628.906250; 1.16686E-4
1634.765625; 1.13521E-4
1640.625000; 1.13521E-4
1646.484375; 1.09860E-4
1652.343750; 1.16108E-4
1658.203125; 1.10099E-4
1664.062500; 9.20934E-5
1669.921875; 1.00541E-4
1675.781250; 1.03083E-4
1681.640625; 1.26294E-4
1687.500000; 1.37127E-4
1693.359375; 1.14615E-4
1699.218750; 1.14112E-4
1705.078125; 1.20279E-4
1710.937500; 1.07557E-4
1716.796875; 9.14047E-5
1722.656250; 1.08684E-4
1728.515625; 1.19539E-4
1734.375000; 1.00338E-4
1740.234375; 1.07953E-4
1746.093750; 1.16974E-4
1751.953125; 1.18718E-4
1757.812500; 1.11034E-4
1763.671875; 1.12483E-4
1769.531250; 1.25203E-4
1775.390625; 1.12080E-4
1781.250000; 1.03345E-4
1787.109375; 1.12306E-4
1792.968750; 1.12380E-4
1798.828125; 1.12793E-4
1804.687500; 1.05857E-4
1810.546875; 1.02979E-4
1816.406250; 1.13259E-4
1822.265625; 1.13813E-4
1828.125000; 1.00637E-4
1833.984375; 9.81129E-5
1839.843750; 1.09403E-4
1845.703125; 1.00789E-4
1851.562500; 9.46777E-5
1857.421875; 1.11230E-4
1863.281250; 1.20235E-4
1869.140625; 1.29119E-4
1875.000000; 1.23956E-4
1880.859375; 1.03531E-4
1886.718750; 1.01789E-4
1892.578125; 1.24240E-4
1898.437500; 1.15574E-4
1904.296875; 1.16327E-4
1910.156250; 1.10212E-4
1916.015625; 1.09584E-4
1921.875000; 1.11707E-4
1927.734375; 9.88419E-5
1933.593750; 1.04132E-4
1939.453125; 1.09088E-4
1945.312500; 1.16345E-4
1951.171875; 1.06160E-4
1957.031250; 1.07665E-4
1962.890625; 1.18148E-4
1968.750000; 1.04633E-4
1974.609375; 1.10279E-4
1980.468750; 1.19284E-4
1986.328125; 1.18572E-4
1992.187500; 9.89346E-5
1998.046875; 1.39902E-4
2003.906250; 1.33523E-4
2009.765625; 1.17725E-4
2015.625000; 1.17870E-4
2021.484375; 1.20151E-4
2027.343750; 1.12287E-4
2033.203125; 1.06499E-4
2039.062500; 9.66612E-5
2044.921875; 9.84465E-5
2050.781250; 1.09650E-4
2056.640625; 1.04875E-4
2062.500000; 9.92584E-5
2068.359375; 1.09732E-4
2074.218750; 1.15990E-4
2080.078125; 1.26754E-4
2085.937500; 1.18239E-4
2091.796875; 9.59710E-5
2097.656250; 9.88518E-5
2103.515625; 1.01148E-4
2109.375000; 1.04257E-4
2115.234375; 1.15667E-4
2121.093750; 1.23166E-4
2126.953125; 1.11899E-4
2132.812500; 9.88930E-5
2138.671875; 9.42545E-5
2144.531250; 9.49636E-5
2150.390625; 1.01738E-4
2156.250000; 1.08863E-4
2162.109375; 1.05202E-4
2167.968750; 9.95972E-5
2173.828125; 9.14476E-5
2179.687500; 1.09412E-4
2185.546875; 1.17680E-4
2191.406250; 1.15850E-4
2197.265625; 1.14098E-4
2203.125000; 1.12893E-4
2208.984375; 1.16803E-4
2214.843750; 1.04489E-4
2220.703125; 1.10375E-4
2226.562500; 1.13534E-4
2232.421875; 9.77426E-5
2238.281250; 1.01311E-4
2244.140625; 1.06094E-4
2250.000000; 1.12439E-4
2255.859375; 1.07211E-4
2261.718750; 1.08862E-4
2267.578125; 1.06199E-4
2273.437500; 1.15218E-4
2279.296875; 1.17229E-4
2285.156250; 1.08900E-4
2291.015625; 8.34043E-5
2296.875000; 8.97176E-5
2302.734375; 9.70103E-5
2308.593750; 9.86460E-5
2314.453125; 1.02579E-4
2320.312500; 1.11984E-4
2326.171875; 1.19195E-4
2332.031250; 1.20793E-4
2337.890625; 9.75326E-5
2343.750000; 9.29091E-5
2349.609375; 9.56975E-5
2355.468750; 1.10560E-4
2361.328125; 1.06143E-4
2367.187500; 9.59563E-5
2373.046875; 1.12883E-4
2378.906250; 1.07182E-4
2384.765625; 1.15688E-4
2390.625000; 1.22686E-4
2396.484375; 1.13504E-4
2402.343750; 1.13319E-4
2408.203125; 1.20003E-4
2414.062500; 1.11581E-4
2419.921875; 1.08351E-4
2425.781250; 1.02050E-4
2431.640625; 1.14569E-4
2437.500000; 1.18701E-4
2443.359375; 1.12884E-4
2449.218750; 1.13365E-4
2455.078125; 1.13759E-4
2460.937500; 1.10373E-4
2466.796875; 9.97340E-5
2472.656250; 1.05234E-4
2478.515625; 1.02373E-4
2484.375000; 1.04288E-4
2490.234375; 1.16694E-4
2496.093750; 1.13282E-4
2501.953125; 1.01895E-4
2507.812500; 1.13145E-4
2513.671875; 1.17379E-4
2519.531250; 1.14084E-4
2525.390625; 1.08229E-4
2531.250000; 1.00009E-4
2537.109375; 1.02145E-4
2542.968750; 1.02761E-4
2548.828125; 1.03970E-4
2554.687500; 9.25921E-5
2560.546875; 1.07993E-4
2566.406250; 1.15247E-4
2572.265625; 1.12644E-4
2578.125000; 1.17379E-4
2583.984375; 1.20298E-4
2589.843750; 1.13950E-4
2595.703125; 1.17364E-4
2601.562500; 1.11614E-4
2607.421875; 1.10538E-4
2613.281250; 1.03956E-4
2619.140625; 1.03783E-4
2625.000000; 1.06558E-4
2630.859375; 1.00042E-4
2636.718750; 1.00173E-4
2642.578125; 1.10813E-4
2648.437500; 1.09488E-4
2654.296875; 1.01026E-4
2660.156250; 1.04006E-4
2666.015625; 1.17143E-4
2671.875000; 1.11420E-4
2677.734375; 1.07147E-4
2683.593750; 1.08124E-4
2689.453125; 1.04620E-4
2695.312500; 1.15762E-4
2701.171875; 1.13867E-4
2707.031250; 1.18486E-4
2712.890625; 1.14467E-4
2718.750000; 9.99229E-5
2724.609375; 1.05964E-4
2730.468750; 1.04830E-4
2736.328125; 1.00343E-4
2742.187500; 1.10278E-4
2748.046875; 1.03242E-4
2753.906250; 1.05930E-4
2759.765625; 1.12358E-4
2765.625000; 1.12309E-4
2771.484375; 1.08110E-4
2777.343750; 1.03855E-4
2783.203125; 1.01063E-4
2789.062500; 1.08108E-4
2794.921875; 1.10785E-4
2800.781250; 1.19932E-4
2806.640625; 1.21267E-4
2812.500000; 1.05476E-4
2818.359375; 1.03056E-4
2824.218750; 1.13909E-4
2830.078125; 1.11693E-4
2835.937500; 1.10678E-4
2841.796875; 1.22041E-4
2847.656250; 1.16213E-4
2853.515625; 1.07944E-4
2859.375000; 1.04200E-4
2865.234375; 1.06942E-4
2871.093750; 1.07791E-4
2876.953125; 1.14096E-4
2882.812500; 1.09652E-4
2888.671875; 1.18644E-4
2894.531250; 1.19146E-4
2900.390625; 1.11105E-4
2906.250000; 1.14246E-4
2912.109375; 1.07222E-4
2917.968750; 1.12034E-4
2923.828125; 1.13617E-4
2929.687500; 9.56635E-5
2935.546875; 9.97460E-5
2941.406250; 1.07075E-4
2947.265625; 1.05807E-4
2953.125000; 1.02376E-4
2958.984375; 1.15560E-4
2964.843750; 1.08504E-4
2970.703125; 1.13328E-4
2976.562500; 1.26265E-4
2982.421875; 1.14243E-4
2988.281250; 1.12693E-4
2994.140625; 1.07075E-4
3000.000000; 1.04108E-4
3005.859375; 1.17710E-4
3011.718750; 1.02538E-4
3017.578125; 1.04440E-4
3023.437500; 1.04657E-4
3029.296875; 1.06337E-4
3035.156250; 1.11134E-4
3041.015625; 1.11404E-4
3046.875000; 1.14862E-4
3052.734375; 1.03973E-4
3058.593750; 1.17191E-4
3064.453125; 1.22049E-4
3070.312500; 1.05190E-4
3076.171875; 1.00185E-4
3082.031250; 9.74728E-5
3087.890625; 1.10343E-4
3093.750000; 1.02861E-4
3099.609375; 1.05090E-4
3105.468750; 1.08716E-4
3111.328125; 1.10957E-4
3117.187500; 1.16846E-4
3123.046875; 1.15881E-4
3128.906250; 1.11005E-4
3134.765625; 1.05756E-4
3140.625000; 1.17601E-4
3146.484375; 1.21072E-4
3152.343750; 1.05135E-4
3158.203125; 1.07837E-4
3164.062500; 1.05814E-4
3169.921875; 1.03419E-4
3175.781250; 1.05064E-4
3181.640625; 1.13582E-4
3187.500000; 1.10706E-4
3193.359375; 1.08990E-4
3199.218750; 1.06243E-4
3205.078125; 1.11992E-4
3210.937500; 1.14367E-4
3216.796875; 1.06603E-4
3222.656250; 1.07124E-4
3228.515625; 1.17730E-4
3234.375000; 1.10617E-4
3240.234375; 1.06794E-4
3246.093750; 1.12240E-4
3251.953125; 1.13704E-4
3257.812500; 1.20617E-4
3263.671875; 1.11084E-4
3269.531250; 1.08344E-4
3275.390625; 1.12706E-4
3281.250000; 1.03352E-4
3287.109375; 1.06980E-4
3292.968750; 1.01176E-4
3298.828125; 1.04729E-4
3304.687500; 1.22029E-4
3310.546875; 1.16243E-4
3316.406250; 1.05938E-4
3322.265625; 1.05526E-4
3328.125000; 1.13847E-4
3333.984375; 1.11638E-4
3339.843750; 1.04389E-4
3345.703125; 1.03990E-4
3351.562500; 1.16288E-4
3357.421875; 1.06853E-4
3363.281250; 1.11912E-4
3369.140625; 1.06849E-4
3375.000000; 9.32826E-5
3380.859375; 1.05531E-4
3386.718750; 1.00732E-4
3392.578125; 1.00436E-4
3398.437500; 1.03829E-4
3404.296875; 1.10816E-4
3410.156250; 1.13427E-4
3416.015625; 1.10118E-4
3421.875000; 1.15092E-4
3427.734375; 1.11919E-4
3433.593750; 1.06838E-4
3439.453125; 9.89470E-5
3445.312500; 1.14725E-4
3451.171875; 1.17444E-4
3457.031250; 1.17129E-4
3462.890625; 1.15053E-4
3468.750000; 1.29187E-4
3474.609375; 1.09169E-4
3480.468750; 1.14739E-4
3486.328125; 1.04818E-4
3492.187500; 1.04422E-4
3498.046875; 1.10306E-4
3503.906250; 1.19663E-4
3509.765625; 1.05505E-4
3515.625000; 1.01736E-4
3521.484375; 1.12135E-4
3527.343750; 1.13695E-4
3533.203125; 1.24696E-4
3539.062500; 1.13184E-4
3544.921875; 1.08315E-4
3550.781250; 1.04179E-4
3556.640625; 1.00556E-4
3562.500000; 1.03516E-4
3568.359375; 1.02515E-4
3574.218750; 1.04141E-4
3580.078125; 1.01243E-4
3585.937500; 1.05742E-4
3591.796875; 1.06836E-4
3597.656250; 1.20014E-4
3603.515625; 1.20012E-4
3609.375000; 1.23184E-4
3615.234375; 1.26343E-4
3621.093750; 1.14093E-4
3626.953125; 1.07482E-4
3632.812500; 1.07822E-4
3638.671875; 1.12695E-4
3644.531250; 1.08466E-4
3650.390625; 9.51440E-5
3656.250000; 9.97379E-5
3662.109375; 9.61702E-5
3667.968750; 1.02540E-4
3673.828125; 1.10140E-4
3679.687500; 1.06867E-4
3685.546875; 1.11567E-4
3691.406250; 1.21924E-4
3697.265625; 1.09277E-4
3703.125000; 1.10874E-4
3708.984375; 1.20387E-4
3714.843750; 1.13107E-4
3720.703125; 1.03194E-4
3726.562500; 1.07449E-4
3732.421875; 1.15274E-4
3738.281250; 1.11235E-4
3744.140625; 9.97579E-5
3750.000000; 1.14171E-4
3755.859375; 1.09621E-4
3761.718750; 1.01757E-4
3767.578125; 1.00467E-4
3773.437500; 1.15498E-4
3779.296875; 1.05062E-4
3785.156250; 9.26677E-5
3791.015625; 1.04595E-4
3796.875000; 1.12828E-4
3802.734375; 1.12183E-4
3808.593750; 9.25490E-5
3814.453125; 9.44916E-5
3820.312500; 1.12538E-4
3826.171875; 1.04629E-4
3832.031250; 1.00790E-4
3837.890625; 1.04799E-4
3843.750000; 1.19372E-4
3849.609375; 1.23294E-4
3855.468750; 1.19758E-4
3861.328125; 1.06947E-4
3867.187500; 1.16170E-4
3873.046875; 1.12613E-4
3878.906250; 1.02121E-4
3884.765625; 1.01941E-4
3890.625000; 1.07671E-4
3896.484375; 1.15268E-4
3902.343750; 1.09735E-4
3908.203125; 1.09921E-4
3914.062500; 1.06077E-4
3919.921875; 1.05076E-4
3925.781250; 9.31571E-5
3931.640625; 1.06604E-4
3937.500000; 1.12678E-4
3943.359375; 9.98377E-5
3949.218750; 1.09799E-4
3955.078125; 1.07616E-4
3960.937500; 1.01836E-4
3966.796875; 1.03177E-4
3972.656250; 1.07111E-4
3978.515625; 1.07698E-4
3984.375000; 1.01791E-4
3990.234375; 9.93965E-5
3996.093750; 9.83252E-5
4001.953125; 1.08248E-4
4007.812500; 1.03816E-4
4013.671875; 1.14545E-4
4019.531250; 1.20327E-4
4025.390625; 1.08057E-4
4031.250000; 1.02472E-4
4037.109375; 1.02319E-4
4042.968750; 1.03218E-4
4048.828125; 1.13878E-4
4054.687500; 1.15726E-4
4060.546875; 1.08542E-4
4066.406250; 9.63550E-5
4072.265625; 1.13790E-4
4078.125000; 1.10947E-4
4083.984375; 9.99268E-5
4089.843750; 1.05801E-4
4095.703125; 1.08589E-4
4101.562500; 1.14122E-4
4107.421875; 1.12345E-4
4113.281250; 1.04589E-4
4119.140625; 1.13386E-4
4125.000000; 1.07266E-4
4130.859375; 1.11751E-4
4136.718750; 1.18730E-4
4142.578125; 1.09191E-4
4148.437500; 9.99303E-5
4154.296875; 1.00292E-4
4160.156250; 1.13128E-4
4166.015625; 1.12341E-4
4171.875000; 9.82741E-5
4177.734375; 1.04448E-4
4183.593750; 1.12136E-4
4189.453125; 1.14738E-4
4195.312500; 1.16079E-4
4201.171875; 9.92147E-5
4207.031250; 1.12060E-4
4212.890625; 1.14993E-4
4218.750000; 1.11127E-4
4224.609375; 1.07485E-4
4230.468750; 1.08244E-4
4236.328125; 1.00810E-4
4242.187500; 1.00701E-4
4248.046875; 9.50852E-5
4253.906250; 1.04141E-4
4259.765625; 1.15697E-4
4265.625000; 9.77885E-5
4271.484375; 9.23200E-5
4277.343750; 9.64489E-5
4283.203125; 9.78797E-5
4289.062500; 1.05048E-4
4294.921875; 1.06525E-4
4300.781250; 1.09257E-4
4306.640625; 9.50959E-5
4312.500000; 9.73349E-5
4318.359375; 1.04993E-4
4324.218750; 1.04734E-4
4330.078125; 9.35166E-5
4335.937500; 1.04600E-4
4341.796875; 1.03255E-4
4347.656250; 1.13127E-4
4353.515625; 1.10145E-4
4359.375000; 1.09151E-4
4365.234375; 1.17194E-4
4371.093750; 1.07580E-4
4376.953125; 1.00478E-4
4382.812500; 1.02794E-4
4388.671875; 1.02010E-4
4394.531250; 9.48164E-5
4400.390625; 1.04562E-4
4406.250000; 1.17393E-4
4412.109375; 1.10414E-4
4417.968750; 1.11364E-4
4423.828125; 1.08279E-4
4429.687500; 1.12937E-4
4435.546875; 1.09179E-4
4441.406250; 1.01854E-4
4447.265625; 1.02596E-4
4453.125000; 9.79981E-5
4458.984375; 1.13943E-4
4464.843750; 1.15013E-4
4470.703125; 1.16274E-4
4476.562500; 1.14049E-4
4482.421875; 1.23536E-4
4488.281250; 1.18168E-4
4494.140625; 1.10909E-4
4500.000000; 1.14836E-4
4505.859375; 1.12314E-4
4511.718750; 1.19985E-4
4517.578125; 1.00314E-4
4523.437500; 9.97898E-5
4529.296875; 1.10606E-4
4535.156250; 1.06207E-4
4541.015625; 1.05622E-4
4546.875000; 1.10061E-4
4552.734375; 1.02581E-4
4558.593750; 1.03104E-4
4564.453125; 1.09303E-4
4570.312500; 1.03359E-4
4576.171875; 1.01116E-4
4582.031250; 9.97188E-5
4587.890625; 1.04660E-4
4593.750000; 1.15190E-4
4599.609375; 1.02468E-4
4605.468750; 1.10323E-4
4611.328125; 1.08431E-4
4617.187500; 1.09302E-4
4623.046875; 1.11737E-4
4628.906250; 9.49526E-5
4634.765625; 1.08465E-4
4640.625000; 1.09795E-4
4646.484375; 1.05634E-4
4652.343750; 1.01870E-4
4658.203125; 9.86188E-5
4664.062500; 1.06989E-4
