* Measurement data measured by REW V5.31.3
* Source: PCM: default, no input selected, 2, volume: no control
* Format: 8192-point spectrum using Hann window and exponential averaging 0.97 
* Dated: Mar 9, 2025 1:25:20 PM
* REW Settings:
*  C-weighting compensation: Off
*  Target level: 75.0 dB
* Note: OSDEHA MU-OUTPUT; 8192-point spectrum using Hann window and exponential averaging 0.97  Input RMS 74.98 V 74.98 VC, 74.98 VA 74.98 V 22 - 22k UNW 975.6 uV >22k Distortion at 1,000.0 Hz, -2.50 dBFS: Gain: 29.67 dB THD: 0.024 % based on 21 harmonics  [0..22800 Hz] HHD: 0.00057 %  [10 .. 22] N: 0.019 %  [0..22800 Hz] N+D: 21.05 mV A THD+N: 0.030 %  [0..22800 Hz] SNR: 74.4 dB ENOB: 12.3 bits 2nd harmonic 0.022 % -166 deg 3rd harmonic 0.0068 % -91 deg 4th harmonic 0.0042 % 119 deg 5th harmonic 0.0028 % -51 deg 6th harmonic 0.0011 % 89 deg 7th harmonic 0.00030 % -39 deg 8th harmonic 0.00040 % 116 deg 9th harmonic 0.00026 % -72 deg
* Measurement: OSDEHA MU-OUT 75
* Smoothing: None
* Frequency Step: 5.859375 Hz
* Start Frequency: 5.859375 Hz
*
* Freq(Hz); V(V)
5.859375; 3.71401E-4
11.718750; 4.26591E-4
17.578125; 3.16883E-4
23.437500; 2.91020E-4
29.296875; 3.05819E-4
35.156250; 2.77028E-4
41.015625; 2.42989E-4
46.875000; 3.31068E-4
52.734375; 3.74828E-4
58.593750; 2.65678E-4
64.453125; 2.37524E-4
70.312500; 2.15938E-4
76.171875; 1.88356E-4
82.031250; 2.12908E-4
87.890625; 2.31426E-4
93.750000; 5.71406E-3
99.609375; 1.27857E-2
105.468750; 7.15961E-3
111.328125; 2.78435E-4
117.187500; 1.90218E-4
123.046875; 1.85042E-4
128.906250; 1.88631E-4
134.765625; 1.99583E-4
140.625000; 1.91399E-4
146.484375; 2.17266E-4
152.343750; 1.97709E-4
158.203125; 1.60028E-4
164.062500; 1.91244E-4
169.921875; 1.73670E-4
175.781250; 1.55616E-4
181.640625; 1.63403E-4
187.500000; 1.68381E-4
193.359375; 5.31114E-4
199.218750; 1.32480E-3
205.078125; 8.49563E-4
210.937500; 1.74640E-4
216.796875; 1.53684E-4
222.656250; 1.56521E-4
228.515625; 1.67282E-4
234.375000; 1.56835E-4
240.234375; 1.72313E-4
246.093750; 1.67705E-4
251.953125; 1.71266E-4
257.812500; 1.51760E-4
263.671875; 1.56552E-4
269.531250; 1.69319E-4
275.390625; 1.66104E-4
281.250000; 1.57334E-4
287.109375; 1.56602E-4
292.968750; 1.79496E-4
298.828125; 3.06880E-4
304.687500; 2.32348E-4
310.546875; 1.48717E-4
316.406250; 1.56691E-4
322.265625; 1.71645E-4
328.125000; 1.48903E-4
333.984375; 1.54298E-4
339.843750; 1.47986E-4
345.703125; 1.52763E-4
351.562500; 1.46516E-4
357.421875; 1.43294E-4
363.281250; 1.40953E-4
369.140625; 1.74909E-4
375.000000; 1.68757E-4
380.859375; 1.56082E-4
386.718750; 1.56682E-4
392.578125; 1.78805E-4
398.437500; 2.80842E-4
404.296875; 2.42274E-4
410.156250; 1.59103E-4
416.015625; 1.65490E-4
421.875000; 1.63857E-4
427.734375; 1.84847E-4
433.593750; 1.81944E-4
439.453125; 1.61243E-4
445.312500; 1.47539E-4
451.171875; 1.63125E-4
457.031250; 1.71836E-4
462.890625; 1.68312E-4
468.750000; 1.38048E-4
474.609375; 1.36179E-4
480.468750; 1.58667E-4
486.328125; 1.90096E-4
492.187500; 1.81586E-4
498.046875; 1.75352E-4
503.906250; 1.51982E-4
509.765625; 1.68102E-4
515.625000; 1.57697E-4
521.484375; 1.55985E-4
527.343750; 1.50606E-4
533.203125; 1.54837E-4
539.062500; 1.47953E-4
544.921875; 1.67290E-4
550.781250; 1.60677E-4
556.640625; 1.44548E-4
562.500000; 1.63536E-4
568.359375; 2.07222E-4
574.218750; 1.62173E-4
580.078125; 1.67527E-4
585.937500; 1.62395E-4
591.796875; 1.69447E-4
597.656250; 1.91249E-4
603.515625; 1.74541E-4
609.375000; 1.45714E-4
615.234375; 1.85167E-4
621.093750; 1.53642E-4
626.953125; 1.78463E-4
632.812500; 1.64966E-4
638.671875; 1.66834E-4
644.531250; 1.63970E-4
650.390625; 1.88931E-4
656.250000; 2.08474E-4
662.109375; 1.62968E-4
667.968750; 1.85879E-4
673.828125; 1.99045E-4
679.687500; 1.78649E-4
685.546875; 2.20684E-4
691.406250; 2.01382E-4
697.265625; 2.23372E-4
703.125000; 2.26969E-4
708.984375; 2.60977E-4
714.843750; 2.03889E-4
720.703125; 2.73405E-4
726.562500; 2.71637E-4
732.421875; 2.72016E-4
738.281250; 2.80575E-4
744.140625; 2.87633E-4
750.000000; 3.17165E-4
755.859375; 3.56673E-4
761.718750; 3.20667E-4
767.578125; 3.91721E-4
773.437500; 3.73777E-4
779.296875; 3.96064E-4
785.156250; 4.64754E-4
791.015625; 4.67678E-4
796.875000; 5.23244E-4
802.734375; 5.49391E-4
808.593750; 6.52293E-4
814.453125; 6.32508E-4
820.312500; 7.55243E-4
826.171875; 8.07494E-4
832.031250; 8.77889E-4
837.890625; 9.99864E-4
843.750000; 1.09916E-3
849.609375; 1.22582E-3
855.468750; 1.41339E-3
861.328125; 1.55997E-3
867.187500; 1.78616E-3
873.046875; 2.03812E-3
878.906250; 2.35639E-3
884.765625; 2.74525E-3
890.625000; 3.14001E-3
896.484375; 3.80635E-3
902.343750; 4.47718E-3
908.203125; 5.39320E-3
914.062500; 6.57486E-3
919.921875; 8.15887E-3
925.781250; 1.02407E-2
931.640625; 1.31057E-2
937.500000; 1.71660E-2
943.359375; 2.31566E-2
949.218750; 3.21641E-2
955.078125; 4.66702E-2
960.937500; 7.13682E-2
966.796875; 1.17222E-1
972.656250; 2.13180E-1
978.515625; 4.53003E-1
984.375000; 1.26833E0
990.234375; 6.97597E0
996.093750; 5.58076E1
1001.953125; 6.97595E1
1007.812500; 1.99313E1
1013.671875; 1.99312E0
1019.531250; 6.13263E-1
1025.390625; 2.68343E-1
1031.250000; 1.41171E-1
1037.109375; 8.34862E-2
1042.968750; 5.33727E-2
1048.828125; 3.62662E-2
1054.687500; 2.56766E-2
1060.546875; 1.89488E-2
1066.406250; 1.42917E-2
1072.265625; 1.11021E-2
1078.125000; 8.77272E-3
1083.984375; 7.03296E-3
1089.843750; 5.77984E-3
1095.703125; 4.77600E-3
1101.562500; 3.96325E-3
1107.421875; 3.36829E-3
1113.281250; 2.88473E-3
1119.140625; 2.46499E-3
1125.000000; 2.13942E-3
1130.859375; 1.85316E-3
1136.718750; 1.66581E-3
1142.578125; 1.41844E-3
1148.437500; 1.28145E-3
1154.296875; 1.14926E-3
1160.156250; 1.03743E-3
1166.015625; 9.15563E-4
1171.875000; 8.32986E-4
1177.734375; 7.77600E-4
1183.593750; 6.71084E-4
1189.453125; 6.41584E-4
1195.312500; 5.77643E-4
1201.171875; 5.45302E-4
1207.031250; 4.79887E-4
1212.890625; 4.54233E-4
1218.750000; 4.45156E-4
1224.609375; 3.84309E-4
1230.468750; 4.00271E-4
1236.328125; 3.07885E-4
1242.187500; 3.35353E-4
1248.046875; 3.19020E-4
1253.906250; 2.65215E-4
1259.765625; 2.95740E-4
1265.625000; 2.74142E-4
1271.484375; 2.58907E-4
1277.343750; 2.42707E-4
1283.203125; 2.15863E-4
1289.062500; 2.46883E-4
1294.921875; 2.12254E-4
1300.781250; 2.27971E-4
1306.640625; 1.93377E-4
1312.500000; 2.21082E-4
1318.359375; 1.98602E-4
1324.218750; 2.17139E-4
1330.078125; 1.70188E-4
1335.937500; 1.69480E-4
1341.796875; 1.68936E-4
1347.656250; 1.76265E-4
1353.515625; 1.81026E-4
1359.375000; 1.54898E-4
1365.234375; 1.51290E-4
1371.093750; 1.59429E-4
1376.953125; 1.87297E-4
1382.812500; 1.61604E-4
1388.671875; 1.44412E-4
1394.531250; 1.80002E-4
1400.390625; 1.83270E-4
1406.250000; 1.77225E-4
1412.109375; 1.70265E-4
1417.968750; 1.61612E-4
1423.828125; 1.60908E-4
1429.687500; 1.65575E-4
1435.546875; 1.61569E-4
1441.406250; 1.55440E-4
1447.265625; 1.52988E-4
1453.125000; 1.57817E-4
1458.984375; 1.75408E-4
1464.843750; 1.66474E-4
1470.703125; 1.49165E-4
1476.562500; 1.54124E-4
1482.421875; 1.69537E-4
1488.281250; 1.61965E-4
1494.140625; 1.33424E-4
1500.000000; 1.51463E-4
1505.859375; 1.61371E-4
1511.718750; 1.57594E-4
1517.578125; 1.38264E-4
1523.437500; 1.36796E-4
1529.296875; 1.21009E-4
1535.156250; 1.48867E-4
1541.015625; 1.85741E-4
1546.875000; 1.52401E-4
1552.734375; 1.36767E-4
1558.593750; 1.53542E-4
1564.453125; 1.95157E-4
1570.312500; 1.70901E-4
1576.171875; 1.51608E-4
1582.031250; 1.38812E-4
1587.890625; 1.31461E-4
1593.750000; 1.50250E-4
1599.609375; 1.45763E-4
1605.468750; 1.25941E-4
1611.328125; 1.28309E-4
1617.187500; 1.37270E-4
1623.046875; 1.62214E-4
1628.906250; 1.53267E-4
1634.765625; 1.36370E-4
1640.625000; 1.50417E-4
1646.484375; 1.55478E-4
1652.343750; 1.57518E-4
1658.203125; 1.60216E-4
1664.062500; 1.44530E-4
1669.921875; 1.56933E-4
1675.781250; 1.46252E-4
1681.640625; 1.54443E-4
1687.500000; 1.43565E-4
1693.359375; 1.50234E-4
1699.218750; 1.54700E-4
1705.078125; 1.69548E-4
1710.937500; 1.50583E-4
1716.796875; 1.56980E-4
1722.656250; 1.50941E-4
1728.515625; 1.47363E-4
1734.375000; 1.41654E-4
1740.234375; 1.22750E-4
1746.093750; 1.23185E-4
1751.953125; 1.42910E-4
1757.812500; 1.54482E-4
1763.671875; 1.38195E-4
1769.531250; 1.30507E-4
1775.390625; 1.55348E-4
1781.250000; 1.58641E-4
1787.109375; 1.47132E-4
1792.968750; 1.46415E-4
1798.828125; 1.45881E-4
1804.687500; 1.64944E-4
1810.546875; 1.50932E-4
1816.406250; 1.40236E-4
1822.265625; 1.46799E-4
1828.125000; 1.52142E-4
1833.984375; 1.60539E-4
1839.843750; 1.44081E-4
1845.703125; 1.18278E-4
1851.562500; 1.39056E-4
1857.421875; 1.45976E-4
1863.281250; 1.43122E-4
1869.140625; 1.47115E-4
1875.000000; 1.48085E-4
1880.859375; 1.54115E-4
1886.718750; 1.54718E-4
1892.578125; 1.58124E-4
1898.437500; 1.41847E-4
1904.296875; 1.24540E-4
1910.156250; 1.45477E-4
1916.015625; 1.66717E-4
1921.875000; 1.49035E-4
1927.734375; 1.44627E-4
1933.593750; 1.45904E-4
1939.453125; 1.63628E-4
1945.312500; 1.69259E-4
1951.171875; 1.35623E-4
1957.031250; 1.25620E-4
1962.890625; 1.22517E-4
1968.750000; 1.86500E-4
1974.609375; 1.73749E-4
1980.468750; 1.79203E-4
1986.328125; 4.68157E-4
1992.187500; 4.40322E-3
1998.046875; 1.54355E-2
2003.906250; 1.23703E-2
2009.765625; 1.56392E-3
2015.625000; 3.27770E-4
2021.484375; 1.71137E-4
2027.343750; 1.71099E-4
2033.203125; 1.64518E-4
2039.062500; 1.21878E-4
2044.921875; 1.28625E-4
2050.781250; 1.37299E-4
2056.640625; 1.54863E-4
2062.500000; 1.38780E-4
2068.359375; 1.36643E-4
2074.218750; 1.43742E-4
2080.078125; 1.52595E-4
2085.937500; 1.56684E-4
2091.796875; 1.45119E-4
2097.656250; 1.39847E-4
2103.515625; 1.42264E-4
2109.375000; 1.51246E-4
2115.234375; 1.47214E-4
2121.093750; 1.43440E-4
2126.953125; 1.36525E-4
2132.812500; 1.63840E-4
2138.671875; 1.76362E-4
2144.531250; 1.35936E-4
2150.390625; 1.39845E-4
2156.250000; 1.41942E-4
2162.109375; 1.48177E-4
2167.968750; 1.48307E-4
2173.828125; 1.47176E-4
2179.687500; 1.49542E-4
2185.546875; 1.45273E-4
2191.406250; 1.58277E-4
2197.265625; 1.57030E-4
2203.125000; 1.34849E-4
2208.984375; 1.57170E-4
2214.843750; 1.49702E-4
2220.703125; 1.52031E-4
2226.562500; 1.49703E-4
2232.421875; 1.54625E-4
2238.281250; 1.45024E-4
2244.140625; 1.50015E-4
2250.000000; 1.37150E-4
2255.859375; 1.39561E-4
2261.718750; 1.46996E-4
2267.578125; 1.35416E-4
2273.437500; 1.32203E-4
2279.296875; 1.35854E-4
2285.156250; 1.54045E-4
2291.015625; 1.54919E-4
2296.875000; 1.42193E-4
2302.734375; 1.31976E-4
2308.593750; 1.18846E-4
2314.453125; 1.46779E-4
2320.312500; 1.55589E-4
2326.171875; 1.29343E-4
2332.031250; 1.23355E-4
2337.890625; 1.09360E-4
2343.750000; 1.39700E-4
2349.609375; 1.45706E-4
2355.468750; 1.21443E-4
2361.328125; 1.19600E-4
2367.187500; 1.30340E-4
2373.046875; 1.55160E-4
2378.906250; 1.31068E-4
2384.765625; 1.25387E-4
2390.625000; 1.25715E-4
2396.484375; 1.23363E-4
2402.343750; 1.50920E-4
2408.203125; 1.51749E-4
2414.062500; 1.29761E-4
2419.921875; 1.28488E-4
2425.781250; 1.52742E-4
2431.640625; 1.70394E-4
2437.500000; 1.48740E-4
2443.359375; 1.29240E-4
2449.218750; 1.39957E-4
2455.078125; 1.59669E-4
2460.937500; 1.52273E-4
2466.796875; 1.33907E-4
2472.656250; 1.39832E-4
2478.515625; 1.35683E-4
2484.375000; 1.49526E-4
2490.234375; 1.44510E-4
2496.093750; 1.32971E-4
2501.953125; 1.48507E-4
2507.812500; 1.55761E-4
2513.671875; 1.50841E-4
2519.531250; 1.30533E-4
2525.390625; 1.27931E-4
2531.250000; 1.42144E-4
2537.109375; 1.48666E-4
2542.968750; 1.48393E-4
2548.828125; 1.30158E-4
2554.687500; 1.32354E-4
2560.546875; 1.40036E-4
2566.406250; 1.49561E-4
2572.265625; 1.43020E-4
2578.125000; 1.39137E-4
2583.984375; 1.38498E-4
2589.843750; 1.53058E-4
2595.703125; 1.73116E-4
2601.562500; 1.54439E-4
2607.421875; 1.36514E-4
2613.281250; 1.45155E-4
2619.140625; 1.42856E-4
2625.000000; 1.34355E-4
2630.859375; 1.30954E-4
2636.718750; 1.34373E-4
2642.578125; 1.47990E-4
2648.437500; 1.50080E-4
2654.296875; 1.54621E-4
2660.156250; 1.46587E-4
2666.015625; 1.37787E-4
2671.875000; 1.44468E-4
2677.734375; 1.66633E-4
2683.593750; 1.52715E-4
2689.453125; 1.34398E-4
2695.312500; 1.54723E-4
2701.171875; 1.53216E-4
2707.031250; 1.48836E-4
2712.890625; 1.39441E-4
2718.750000; 1.35058E-4
2724.609375; 1.52580E-4
2730.468750; 1.58096E-4
2736.328125; 1.38174E-4
2742.187500; 1.28802E-4
2748.046875; 1.48885E-4
2753.906250; 1.45235E-4
2759.765625; 1.54274E-4
2765.625000; 1.44230E-4
2771.484375; 1.32046E-4
2777.343750; 1.33288E-4
2783.203125; 1.37359E-4
2789.062500; 1.53501E-4
2794.921875; 1.53524E-4
2800.781250; 1.42993E-4
2806.640625; 1.53369E-4
2812.500000; 1.58944E-4
2818.359375; 1.45342E-4
2824.218750; 1.35378E-4
2830.078125; 1.39262E-4
2835.937500; 1.46669E-4
2841.796875; 1.36808E-4
2847.656250; 1.31883E-4
2853.515625; 1.32634E-4
2859.375000; 1.55370E-4
2865.234375; 1.58497E-4
2871.093750; 1.29662E-4
2876.953125; 1.21496E-4
2882.812500; 1.36192E-4
2888.671875; 1.43029E-4
2894.531250; 1.44235E-4
2900.390625; 1.47089E-4
2906.250000; 1.42087E-4
2912.109375; 1.58382E-4
2917.968750; 1.54802E-4
2923.828125; 1.27412E-4
2929.687500; 1.20536E-4
2935.546875; 1.33879E-4
2941.406250; 1.68051E-4
2947.265625; 1.47605E-4
2953.125000; 1.33356E-4
2958.984375; 1.13983E-4
2964.843750; 1.27764E-4
2970.703125; 1.79512E-4
2976.562500; 1.52123E-4
2982.421875; 1.18739E-4
2988.281250; 1.26488E-4
2994.140625; 2.56047E-3
3000.000000; 5.11225E-3
3005.859375; 2.57258E-3
3011.718750; 1.32072E-4
3017.578125; 1.31497E-4
3023.437500; 1.43333E-4
3029.296875; 1.68673E-4
3035.156250; 1.28237E-4
3041.015625; 1.06909E-4
3046.875000; 1.42841E-4
3052.734375; 1.66770E-4
3058.593750; 1.52273E-4
3064.453125; 1.42755E-4
3070.312500; 1.47495E-4
3076.171875; 1.43236E-4
3082.031250; 1.45552E-4
3087.890625; 1.28365E-4
3093.750000; 1.24386E-4
3099.609375; 1.28220E-4
3105.468750; 1.50183E-4
3111.328125; 1.55187E-4
3117.187500; 1.30236E-4
3123.046875; 1.37172E-4
3128.906250; 1.49641E-4
3134.765625; 1.65964E-4
3140.625000; 1.46396E-4
3146.484375; 1.38723E-4
3152.343750; 1.57438E-4
3158.203125; 1.43545E-4
3164.062500; 1.36907E-4
3169.921875; 1.38028E-4
3175.781250; 1.43531E-4
3181.640625; 1.27886E-4
3187.500000; 1.26824E-4
3193.359375; 1.28149E-4
3199.218750; 1.27391E-4
3205.078125; 1.42356E-4
3210.937500; 1.32360E-4
3216.796875; 1.20081E-4
3222.656250; 1.26369E-4
3228.515625; 1.20662E-4
3234.375000; 1.30761E-4
3240.234375; 1.47467E-4
3246.093750; 1.59383E-4
3251.953125; 1.54863E-4
3257.812500; 1.23729E-4
3263.671875; 1.39185E-4
3269.531250; 1.32910E-4
3275.390625; 1.46361E-4
3281.250000; 1.38319E-4
3287.109375; 1.37333E-4
3292.968750; 1.45043E-4
3298.828125; 1.33451E-4
3304.687500; 1.36865E-4
3310.546875; 1.46735E-4
3316.406250; 1.41889E-4
3322.265625; 1.47311E-4
3328.125000; 1.30417E-4
3333.984375; 1.09055E-4
3339.843750; 1.17831E-4
3345.703125; 1.50889E-4
3351.562500; 1.41462E-4
3357.421875; 1.36948E-4
3363.281250; 1.32691E-4
3369.140625; 1.35850E-4
3375.000000; 1.69837E-4
3380.859375; 1.46709E-4
3386.718750; 1.22917E-4
3392.578125; 1.23788E-4
3398.437500; 1.34174E-4
3404.296875; 1.56567E-4
3410.156250; 1.16762E-4
3416.015625; 1.20769E-4
3421.875000; 1.48093E-4
3427.734375; 1.47951E-4
3433.593750; 1.43161E-4
3439.453125; 1.30331E-4
3445.312500; 1.31005E-4
3451.171875; 1.47398E-4
3457.031250; 1.64258E-4
3462.890625; 1.52539E-4
3468.750000; 1.38163E-4
3474.609375; 1.33061E-4
3480.468750; 1.10707E-4
3486.328125; 1.42203E-4
3492.187500; 1.50236E-4
3498.046875; 1.31470E-4
3503.906250; 1.25735E-4
3509.765625; 1.50165E-4
3515.625000; 1.30800E-4
3521.484375; 1.26299E-4
3527.343750; 1.46644E-4
3533.203125; 1.51159E-4
3539.062500; 1.47701E-4
3544.921875; 1.42812E-4
3550.781250; 1.30073E-4
3556.640625; 1.38903E-4
3562.500000; 1.59908E-4
3568.359375; 1.43131E-4
3574.218750; 1.24595E-4
3580.078125; 1.24338E-4
3585.937500; 1.30238E-4
3591.796875; 1.51589E-4
3597.656250; 1.50283E-4
3603.515625; 1.10535E-4
3609.375000; 1.21425E-4
3615.234375; 1.36279E-4
3621.093750; 1.55362E-4
3626.953125; 1.43577E-4
3632.812500; 1.31208E-4
3638.671875; 1.28243E-4
3644.531250; 1.24185E-4
3650.390625; 1.26235E-4
3656.250000; 1.27881E-4
3662.109375; 1.47932E-4
3667.968750; 1.63477E-4
3673.828125; 1.54130E-4
3679.687500; 1.53259E-4
3685.546875; 1.44700E-4
3691.406250; 1.36193E-4
3697.265625; 1.50161E-4
3703.125000; 1.32608E-4
3708.984375; 1.19783E-4
3714.843750; 1.28791E-4
3720.703125; 1.37062E-4
3726.562500; 1.29633E-4
3732.421875; 1.40596E-4
3738.281250; 1.53877E-4
3744.140625; 1.49236E-4
3750.000000; 1.39861E-4
3755.859375; 1.44121E-4
3761.718750; 1.39956E-4
3767.578125; 1.33204E-4
3773.437500; 1.45154E-4
3779.296875; 1.33953E-4
3785.156250; 1.41247E-4
3791.015625; 1.54887E-4
3796.875000; 1.44442E-4
3802.734375; 1.42418E-4
3808.593750; 1.35189E-4
3814.453125; 1.26382E-4
3820.312500; 1.25181E-4
3826.171875; 1.41562E-4
3832.031250; 1.43374E-4
3837.890625; 1.51983E-4
3843.750000; 1.23162E-4
3849.609375; 1.27117E-4
3855.468750; 1.53518E-4
3861.328125; 1.55376E-4
3867.187500; 1.38262E-4
3873.046875; 1.18877E-4
3878.906250; 1.31257E-4
3884.765625; 1.60526E-4
3890.625000; 1.40271E-4
3896.484375; 1.26659E-4
3902.343750; 1.27235E-4
3908.203125; 1.49474E-4
3914.062500; 1.49795E-4
3919.921875; 1.23653E-4
3925.781250; 1.20080E-4
3931.640625; 1.26501E-4
3937.500000; 1.60851E-4
3943.359375; 1.64598E-4
3949.218750; 1.25398E-4
3955.078125; 1.16253E-4
3960.937500; 1.15796E-4
3966.796875; 1.47840E-4
3972.656250; 1.56463E-4
3978.515625; 1.06401E-4
3984.375000; 1.41936E-4
3990.234375; 3.27816E-4
3996.093750; 2.34478E-3
4001.953125; 2.92027E-3
4007.812500; 8.36139E-4
4013.671875; 1.63422E-4
4019.531250; 1.37689E-4
4025.390625; 1.61653E-4
4031.250000; 1.62994E-4
4037.109375; 1.30312E-4
4042.968750; 1.37576E-4
4048.828125; 1.40895E-4
4054.687500; 1.43609E-4
4060.546875; 1.37855E-4
4066.406250; 1.36594E-4
4072.265625; 1.38102E-4
4078.125000; 1.41477E-4
4083.984375; 1.45172E-4
4089.843750; 1.30754E-4
4095.703125; 1.35482E-4
4101.562500; 1.25966E-4
4107.421875; 1.39238E-4
4113.281250; 1.26104E-4
4119.140625; 1.43445E-4
4125.000000; 1.62030E-4
4130.859375; 1.54770E-4
4136.718750; 1.45032E-4
4142.578125; 1.36260E-4
4148.437500; 1.44312E-4
4154.296875; 1.42494E-4
4160.156250; 1.25931E-4
4166.015625; 1.33391E-4
4171.875000; 1.48219E-4
4177.734375; 1.45455E-4
4183.593750; 1.43549E-4
4189.453125; 1.48520E-4
4195.312500; 1.26886E-4
4201.171875; 1.32285E-4
4207.031250; 1.47366E-4
4212.890625; 1.50247E-4
4218.750000; 1.63289E-4
4224.609375; 1.37760E-4
4230.468750; 1.30372E-4
4236.328125; 1.38180E-4
4242.187500; 1.20081E-4
4248.046875; 1.20482E-4
4253.906250; 1.29480E-4
4259.765625; 1.31436E-4
4265.625000; 1.30500E-4
4271.484375; 1.29411E-4
4277.343750; 1.39944E-4
4283.203125; 1.33022E-4
4289.062500; 1.35193E-4
4294.921875; 1.25608E-4
4300.781250; 1.36548E-4
4306.640625; 1.32190E-4
4312.500000; 1.39623E-4
4318.359375; 1.56998E-4
4324.218750; 1.35981E-4
4330.078125; 1.16919E-4
4335.937500; 1.13951E-4
4341.796875; 1.45283E-4
4347.656250; 1.61216E-4
4353.515625; 1.28826E-4
4359.375000; 1.14265E-4
4365.234375; 1.24274E-4
4371.093750; 1.48439E-4
4376.953125; 1.58056E-4
4382.812500; 1.35021E-4
4388.671875; 1.31122E-4
4394.531250; 1.38154E-4
4400.390625; 1.54161E-4
4406.250000; 1.56499E-4
4412.109375; 1.35782E-4
4417.968750; 1.30481E-4
4423.828125; 1.35312E-4
4429.687500; 1.55842E-4
4435.546875; 1.33006E-4
4441.406250; 1.27204E-4
4447.265625; 1.29509E-4
4453.125000; 1.45366E-4
4458.984375; 1.46980E-4
4464.843750; 1.15034E-4
4470.703125; 1.23467E-4
4476.562500; 1.20582E-4
4482.421875; 1.40923E-4
4488.281250; 1.52552E-4
4494.140625; 1.42225E-4
4500.000000; 1.35746E-4
4505.859375; 1.43503E-4
4511.718750; 1.34141E-4
4517.578125; 1.23219E-4
4523.437500; 1.23856E-4
4529.296875; 1.25271E-4
4535.156250; 1.51877E-4
4541.015625; 1.56516E-4
4546.875000; 1.14073E-4
4552.734375; 1.34215E-4
4558.593750; 1.39462E-4
4564.453125; 1.53840E-4
4570.312500; 1.48168E-4
4576.171875; 1.35454E-4
4582.031250; 1.40050E-4
4587.890625; 1.25874E-4
4593.750000; 1.40683E-4
4599.609375; 1.23694E-4
4605.468750; 1.26174E-4
4611.328125; 1.34391E-4
4617.187500; 1.28865E-4
4623.046875; 1.51268E-4
4628.906250; 1.51794E-4
4634.765625; 1.32560E-4
4640.625000; 1.29555E-4
4646.484375; 1.56926E-4
4652.343750; 1.54635E-4
4658.203125; 1.13617E-4
4664.062500; 1.30117E-4
4669.921875; 1.31161E-4
