* Measurement data measured by REW V5.31.3
* Source: PCM: default, no input selected, 2, volume: no control
* Format: 8192-point spectrum using Hann window and exponential averaging 0.97 
* Dated: Mar 9, 2025 1:24:20 PM
* REW Settings:
*  C-weighting compensation: Off
*  Target level: 75.0 dB
* Note: OSDEHA MU-OUTPUT; 8192-point spectrum using Hann window and exponential averaging 0.97  Input RMS 42.13 V 42.13 VC, 42.12 VA 42.13 V 22 - 22k UNW 960.7 uV >22k Distortion at 1,000.0 Hz, -7.51 dBFS: Gain: 29.67 dB THD: 0.026 % based on 21 harmonics  [0..22800 Hz] HHD: 0.00090 %  [10 .. 22] N: 0.033 %  [0..22800 Hz] N+D: 13.28 mV A THD+N: 0.042 %  [0..22800 Hz] SNR: 69.5 dB ENOB: 12.7 bits 2nd harmonic 0.025 % 149 deg 3rd harmonic 0.0048 % -69 deg 4th harmonic 0.0038 % 137 deg 5th harmonic 0.0012 % -24 deg 6th harmonic 0.00035 % -158 deg 7th harmonic 0.00027 % 49 deg 8th harmonic 0.00027 % -92 deg 9th harmonic 0.00026 % 41 deg 
* Measurement: OSDEHA MU-OUT 42.1
* Smoothing: None
* Frequency Step: 5.859375 Hz
* Start Frequency: 5.859375 Hz
*
* Freq(Hz); V(V)
5.859375; 2.64561E-4
11.718750; 2.65323E-4
17.578125; 2.47587E-4
23.437500; 2.23108E-4
29.296875; 2.02082E-4
35.156250; 1.66542E-4
41.015625; 1.76669E-4
46.875000; 3.32417E-4
52.734375; 3.73419E-4
58.593750; 1.93053E-4
64.453125; 1.64687E-4
70.312500; 1.93249E-4
76.171875; 1.80326E-4
82.031250; 1.56698E-4
87.890625; 2.20608E-4
93.750000; 5.73602E-3
99.609375; 1.28329E-2
105.468750; 7.15753E-3
111.328125; 2.54783E-4
117.187500; 1.75213E-4
123.046875; 1.39508E-4
128.906250; 1.51695E-4
134.765625; 1.51224E-4
140.625000; 1.33580E-4
146.484375; 1.45439E-4
152.343750; 1.66735E-4
158.203125; 1.54668E-4
164.062500; 1.42602E-4
169.921875; 1.29169E-4
175.781250; 1.38477E-4
181.640625; 1.28492E-4
187.500000; 1.33813E-4
193.359375; 5.46624E-4
199.218750; 1.34741E-3
205.078125; 8.30732E-4
210.937500; 1.30543E-4
216.796875; 1.37374E-4
222.656250; 1.35806E-4
228.515625; 1.34140E-4
234.375000; 1.41872E-4
240.234375; 1.16713E-4
246.093750; 1.43548E-4
251.953125; 1.58964E-4
257.812500; 1.46055E-4
263.671875; 1.39899E-4
269.531250; 1.45676E-4
275.390625; 1.51158E-4
281.250000; 1.54484E-4
287.109375; 1.37299E-4
292.968750; 1.77286E-4
298.828125; 3.42379E-4
304.687500; 2.54782E-4
310.546875; 1.37252E-4
316.406250; 1.43064E-4
322.265625; 1.44797E-4
328.125000; 1.30656E-4
333.984375; 1.26800E-4
339.843750; 1.31320E-4
345.703125; 1.44029E-4
351.562500; 1.44543E-4
357.421875; 1.49372E-4
363.281250; 1.42402E-4
369.140625; 1.43222E-4
375.000000; 1.35971E-4
380.859375; 1.30709E-4
386.718750; 1.26928E-4
392.578125; 1.33368E-4
398.437500; 2.55256E-4
404.296875; 2.08705E-4
410.156250; 1.25238E-4
416.015625; 1.34689E-4
421.875000; 1.43388E-4
427.734375; 1.41336E-4
433.593750; 1.31335E-4
439.453125; 1.21938E-4
445.312500; 1.19763E-4
451.171875; 1.34716E-4
457.031250; 1.21706E-4
462.890625; 1.37121E-4
468.750000; 1.40787E-4
474.609375; 1.36069E-4
480.468750; 1.18626E-4
486.328125; 1.09732E-4
492.187500; 1.24312E-4
498.046875; 1.49605E-4
503.906250; 1.41253E-4
509.765625; 1.26924E-4
515.625000; 1.34838E-4
521.484375; 1.49426E-4
527.343750; 1.23489E-4
533.203125; 1.45924E-4
539.062500; 1.53287E-4
544.921875; 1.35243E-4
550.781250; 1.23853E-4
556.640625; 1.23292E-4
562.500000; 1.40795E-4
568.359375; 1.42998E-4
574.218750; 1.25109E-4
580.078125; 1.31278E-4
585.937500; 1.27419E-4
591.796875; 1.26498E-4
597.656250; 1.50207E-4
603.515625; 1.49981E-4
609.375000; 1.21365E-4
615.234375; 1.45310E-4
621.093750; 1.32311E-4
626.953125; 1.32497E-4
632.812500; 1.49242E-4
638.671875; 1.43786E-4
644.531250; 1.42728E-4
650.390625; 1.34185E-4
656.250000; 1.38166E-4
662.109375; 1.35076E-4
667.968750; 1.58399E-4
673.828125; 1.48084E-4
679.687500; 1.35079E-4
685.546875; 1.44973E-4
691.406250; 1.42031E-4
697.265625; 1.32983E-4
703.125000; 1.61068E-4
708.984375; 1.61428E-4
714.843750; 1.51856E-4
720.703125; 1.72246E-4
726.562500; 1.51519E-4
732.421875; 1.89940E-4
738.281250; 1.76827E-4
744.140625; 1.81111E-4
750.000000; 1.87049E-4
755.859375; 2.16782E-4
761.718750; 1.94560E-4
767.578125; 2.29564E-4
773.437500; 2.56481E-4
779.296875; 2.18495E-4
785.156250; 2.80342E-4
791.015625; 2.89101E-4
796.875000; 3.08922E-4
802.734375; 3.20323E-4
808.593750; 3.58699E-4
814.453125; 3.90403E-4
820.312500; 4.19978E-4
826.171875; 4.55296E-4
832.031250; 5.29128E-4
837.890625; 5.60287E-4
843.750000; 6.19066E-4
849.609375; 7.04084E-4
855.468750; 7.74486E-4
861.328125; 8.97330E-4
867.187500; 9.92917E-4
873.046875; 1.16112E-3
878.906250; 1.33013E-3
884.765625; 1.52372E-3
890.625000; 1.80579E-3
896.484375; 2.10725E-3
902.343750; 2.52508E-3
908.203125; 3.03876E-3
914.062500; 3.69261E-3
919.921875; 4.57646E-3
925.781250; 5.76397E-3
931.640625; 7.35077E-3
937.500000; 9.66616E-3
943.359375; 1.29869E-2
949.218750; 1.80822E-2
955.078125; 2.62252E-2
960.937500; 4.00763E-2
966.796875; 6.58782E-2
972.656250; 1.19767E-1
978.515625; 2.54485E-1
984.375000; 7.12571E-1
990.234375; 3.91921E0
996.093750; 3.13535E1
1001.953125; 3.91918E1
1007.812500; 1.11977E1
1013.671875; 1.11979E0
1019.531250; 3.44528E-1
1025.390625; 1.50741E-1
1031.250000; 7.93324E-2
1037.109375; 4.68880E-2
1042.968750; 2.99908E-2
1048.828125; 2.03683E-2
1054.687500; 1.44566E-2
1060.546875; 1.06029E-2
1066.406250; 8.05419E-3
1072.265625; 6.22544E-3
1078.125000; 4.96110E-3
1083.984375; 3.93048E-3
1089.843750; 3.24252E-3
1095.703125; 2.67122E-3
1101.562500; 2.25506E-3
1107.421875; 1.89670E-3
1113.281250; 1.60801E-3
1119.140625; 1.39217E-3
1125.000000; 1.19768E-3
1130.859375; 1.06045E-3
1136.718750; 9.26859E-4
1142.578125; 8.07352E-4
1148.437500; 7.40123E-4
1154.296875; 6.29285E-4
1160.156250; 5.91414E-4
1166.015625; 5.13009E-4
1171.875000; 4.84077E-4
1177.734375; 4.35020E-4
1183.593750; 3.95897E-4
1189.453125; 3.53667E-4
1195.312500; 3.49455E-4
1201.171875; 3.02998E-4
1207.031250; 2.95150E-4
1212.890625; 2.63758E-4
1218.750000; 2.54686E-4
1224.609375; 2.45344E-4
1230.468750; 2.33125E-4
1236.328125; 2.09710E-4
1242.187500; 2.16122E-4
1248.046875; 1.91854E-4
1253.906250; 1.97978E-4
1259.765625; 1.79067E-4
1265.625000; 1.69045E-4
1271.484375; 1.61349E-4
1277.343750; 1.67950E-4
1283.203125; 1.51357E-4
1289.062500; 1.68079E-4
1294.921875; 1.57845E-4
1300.781250; 1.55836E-4
1306.640625; 1.54636E-4
1312.500000; 1.33986E-4
1318.359375; 1.32392E-4
1324.218750; 1.23990E-4
1330.078125; 1.34156E-4
1335.937500; 1.31263E-4
1341.796875; 1.30137E-4
1347.656250; 1.48248E-4
1353.515625; 1.54354E-4
1359.375000; 1.23563E-4
1365.234375; 1.24693E-4
1371.093750; 1.24655E-4
1376.953125; 1.16560E-4
1382.812500; 1.22003E-4
1388.671875; 1.29265E-4
1394.531250; 1.14458E-4
1400.390625; 1.35831E-4
1406.250000; 1.23130E-4
1412.109375; 1.18122E-4
1417.968750; 1.18473E-4
1423.828125; 1.13334E-4
1429.687500; 1.29120E-4
1435.546875; 1.25854E-4
1441.406250; 1.16885E-4
1447.265625; 1.10852E-4
1453.125000; 1.10096E-4
1458.984375; 1.09125E-4
1464.843750; 1.08711E-4
1470.703125; 1.11345E-4
1476.562500; 1.21076E-4
1482.421875; 1.18667E-4
1488.281250; 1.02107E-4
1494.140625; 1.01741E-4
1500.000000; 1.18871E-4
1505.859375; 1.14681E-4
1511.718750; 1.26935E-4
1517.578125; 1.15232E-4
1523.437500; 1.21885E-4
1529.296875; 1.16966E-4
1535.156250; 1.02991E-4
1541.015625; 1.11996E-4
1546.875000; 1.21784E-4
1552.734375; 1.20017E-4
1558.593750; 1.16643E-4
1564.453125; 1.17807E-4
1570.312500; 1.16871E-4
1576.171875; 1.19417E-4
1582.031250; 1.16669E-4
1587.890625; 1.06462E-4
1593.750000; 1.06927E-4
1599.609375; 1.21469E-4
1605.468750; 1.24644E-4
1611.328125; 1.19888E-4
1617.187500; 1.07816E-4
1623.046875; 1.04087E-4
1628.906250; 1.07787E-4
1634.765625; 1.11675E-4
1640.625000; 1.19655E-4
1646.484375; 1.07445E-4
1652.343750; 1.10247E-4
1658.203125; 1.00647E-4
1664.062500; 1.17707E-4
1669.921875; 1.25430E-4
1675.781250; 1.11233E-4
1681.640625; 1.11090E-4
1687.500000; 1.02733E-4
1693.359375; 1.08488E-4
1699.218750; 1.14986E-4
1705.078125; 1.16935E-4
1710.937500; 1.26155E-4
1716.796875; 1.26676E-4
1722.656250; 1.13694E-4
1728.515625; 1.09281E-4
1734.375000; 1.16747E-4
1740.234375; 1.08133E-4
1746.093750; 1.03091E-4
1751.953125; 1.12152E-4
1757.812500; 1.14782E-4
1763.671875; 1.11351E-4
1769.531250; 1.16862E-4
1775.390625; 1.04591E-4
1781.250000; 1.08329E-4
1787.109375; 1.16081E-4
1792.968750; 1.09537E-4
1798.828125; 1.11638E-4
1804.687500; 1.14375E-4
1810.546875; 1.23122E-4
1816.406250; 1.17465E-4
1822.265625; 1.20528E-4
1828.125000; 1.18596E-4
1833.984375; 1.16102E-4
1839.843750; 1.16865E-4
1845.703125; 1.12208E-4
1851.562500; 1.11253E-4
1857.421875; 1.15755E-4
1863.281250; 1.20589E-4
1869.140625; 1.07833E-4
1875.000000; 1.11118E-4
1880.859375; 1.04571E-4
1886.718750; 1.16482E-4
1892.578125; 1.26845E-4
1898.437500; 1.29464E-4
1904.296875; 1.28254E-4
1910.156250; 1.28779E-4
1916.015625; 1.27054E-4
1921.875000; 1.14940E-4
1927.734375; 1.09353E-4
1933.593750; 1.14923E-4
1939.453125; 1.28455E-4
1945.312500; 1.19568E-4
1951.171875; 1.20325E-4
1957.031250; 1.15018E-4
1962.890625; 1.18124E-4
1968.750000; 1.14159E-4
1974.609375; 1.15409E-4
1980.468750; 1.50709E-4
1986.328125; 2.96339E-4
1992.187500; 2.82380E-3
1998.046875; 9.86471E-3
2003.906250; 7.89190E-3
2009.765625; 9.96543E-4
2015.625000; 2.07065E-4
2021.484375; 1.23362E-4
2027.343750; 1.28389E-4
2033.203125; 1.26140E-4
2039.062500; 1.20211E-4
2044.921875; 1.05166E-4
2050.781250; 1.05864E-4
2056.640625; 1.12834E-4
2062.500000; 1.10672E-4
2068.359375; 1.18997E-4
2074.218750; 1.28014E-4
2080.078125; 1.25642E-4
2085.937500; 1.18212E-4
2091.796875; 1.20989E-4
2097.656250; 1.06392E-4
2103.515625; 1.07508E-4
2109.375000; 1.12289E-4
2115.234375; 1.16093E-4
2121.093750; 1.26174E-4
2126.953125; 1.20404E-4
2132.812500; 1.07231E-4
2138.671875; 1.10119E-4
2144.531250; 1.07557E-4
2150.390625; 1.09163E-4
2156.250000; 1.20545E-4
2162.109375; 1.24679E-4
2167.968750; 1.22704E-4
2173.828125; 1.16157E-4
2179.687500; 1.21430E-4
2185.546875; 1.23062E-4
2191.406250; 1.12874E-4
2197.265625; 1.22513E-4
2203.125000; 1.22870E-4
2208.984375; 1.17093E-4
2214.843750; 1.18990E-4
2220.703125; 1.09858E-4
2226.562500; 1.00995E-4
2232.421875; 1.08933E-4
2238.281250; 1.13710E-4
2244.140625; 1.27236E-4
2250.000000; 1.20846E-4
2255.859375; 1.09907E-4
2261.718750; 1.10843E-4
2267.578125; 1.14500E-4
2273.437500; 1.09284E-4
2279.296875; 1.26565E-4
2285.156250; 1.07332E-4
2291.015625; 1.09615E-4
2296.875000; 1.10184E-4
2302.734375; 1.04635E-4
2308.593750; 1.05703E-4
2314.453125; 1.10367E-4
2320.312500; 1.08368E-4
2326.171875; 1.12236E-4
2332.031250; 1.12351E-4
2337.890625; 1.06530E-4
2343.750000; 1.13716E-4
2349.609375; 1.12311E-4
2355.468750; 1.09540E-4
2361.328125; 1.06200E-4
2367.187500; 1.08796E-4
2373.046875; 1.10506E-4
2378.906250; 1.05933E-4
2384.765625; 1.06332E-4
2390.625000; 1.15644E-4
2396.484375; 1.17647E-4
2402.343750; 1.03579E-4
2408.203125; 1.02235E-4
2414.062500; 1.10088E-4
2419.921875; 1.14906E-4
2425.781250; 1.09075E-4
2431.640625; 9.80033E-5
2437.500000; 9.88078E-5
2443.359375; 1.00801E-4
2449.218750; 1.06899E-4
2455.078125; 1.23395E-4
2460.937500; 1.11417E-4
2466.796875; 1.00271E-4
2472.656250; 9.79243E-5
2478.515625; 1.02817E-4
2484.375000; 1.00107E-4
2490.234375; 1.02223E-4
2496.093750; 9.73449E-5
2501.953125; 9.64676E-5
2507.812500; 1.16603E-4
2513.671875; 1.15342E-4
2519.531250; 1.02594E-4
2525.390625; 1.16368E-4
2531.250000; 1.23200E-4
2537.109375; 1.02884E-4
2542.968750; 9.75026E-5
2548.828125; 1.13697E-4
2554.687500; 1.21169E-4
2560.546875; 1.19266E-4
2566.406250; 1.19988E-4
2572.265625; 1.12264E-4
2578.125000; 1.11162E-4
2583.984375; 1.12051E-4
2589.843750; 1.04278E-4
2595.703125; 9.90765E-5
2601.562500; 1.18587E-4
2607.421875; 1.26165E-4
2613.281250; 1.25540E-4
2619.140625; 1.17637E-4
2625.000000; 1.12908E-4
2630.859375; 1.16349E-4
2636.718750; 1.15029E-4
2642.578125; 1.12701E-4
2648.437500; 1.15234E-4
2654.296875; 1.11491E-4
2660.156250; 1.11498E-4
2666.015625; 1.06808E-4
2671.875000; 1.07611E-4
2677.734375; 1.16227E-4
2683.593750; 1.16658E-4
2689.453125; 1.16735E-4
2695.312500; 1.05655E-4
2701.171875; 1.07840E-4
2707.031250; 1.16777E-4
2712.890625; 1.09108E-4
2718.750000; 1.05717E-4
2724.609375; 1.16119E-4
2730.468750; 1.12774E-4
2736.328125; 1.10232E-4
2742.187500; 1.10530E-4
2748.046875; 1.03635E-4
2753.906250; 1.09315E-4
2759.765625; 1.09473E-4
2765.625000; 1.09178E-4
2771.484375; 1.20694E-4
2777.343750; 1.04862E-4
2783.203125; 9.18758E-5
2789.062500; 1.03516E-4
2794.921875; 1.02974E-4
2800.781250; 1.15160E-4
2806.640625; 1.31824E-4
2812.500000; 1.14289E-4
2818.359375; 1.11659E-4
2824.218750; 1.12589E-4
2830.078125; 1.21277E-4
2835.937500; 1.22481E-4
2841.796875; 1.16367E-4
2847.656250; 1.09287E-4
2853.515625; 1.22414E-4
2859.375000; 1.21399E-4
2865.234375; 1.00840E-4
2871.093750; 1.04605E-4
2876.953125; 1.09358E-4
2882.812500; 1.15243E-4
2888.671875; 1.11884E-4
2894.531250; 1.04561E-4
2900.390625; 1.12265E-4
2906.250000; 1.17067E-4
2912.109375; 1.18914E-4
2917.968750; 1.14519E-4
2923.828125; 1.19042E-4
2929.687500; 1.16264E-4
2935.546875; 1.00093E-4
2941.406250; 1.07303E-4
2947.265625; 1.06915E-4
2953.125000; 1.07037E-4
2958.984375; 1.13103E-4
2964.843750; 1.19099E-4
2970.703125; 1.14839E-4
2976.562500; 1.21250E-4
2982.421875; 1.11146E-4
2988.281250; 1.19031E-4
2994.140625; 1.02585E-3
3000.000000; 2.02461E-3
3005.859375; 1.01175E-3
3011.718750; 1.16463E-4
3017.578125; 1.16101E-4
3023.437500; 1.12204E-4
3029.296875; 1.12523E-4
3035.156250; 1.05609E-4
3041.015625; 1.08583E-4
3046.875000; 1.10206E-4
3052.734375; 1.09087E-4
3058.593750; 9.36515E-5
3064.453125; 1.11017E-4
3070.312500; 1.14281E-4
3076.171875; 1.04094E-4
3082.031250; 1.04160E-4
3087.890625; 9.92834E-5
3093.750000; 9.60869E-5
3099.609375; 1.16381E-4
3105.468750; 1.23271E-4
3111.328125; 1.15010E-4
3117.187500; 1.13446E-4
3123.046875; 1.15334E-4
3128.906250; 1.06046E-4
3134.765625; 1.16936E-4
3140.625000; 1.08731E-4
3146.484375; 1.02894E-4
3152.343750; 1.02658E-4
3158.203125; 1.14986E-4
3164.062500; 1.21916E-4
3169.921875; 1.19347E-4
3175.781250; 1.02290E-4
3181.640625; 1.03091E-4
3187.500000; 1.16718E-4
3193.359375; 1.12913E-4
3199.218750; 1.05362E-4
3205.078125; 1.07765E-4
3210.937500; 1.18891E-4
3216.796875; 1.14833E-4
3222.656250; 9.43583E-5
3228.515625; 1.09170E-4
3234.375000; 1.06925E-4
3240.234375; 1.08816E-4
3246.093750; 1.21358E-4
3251.953125; 1.07698E-4
3257.812500; 1.16263E-4
3263.671875; 1.12231E-4
3269.531250; 1.09049E-4
3275.390625; 1.23295E-4
3281.250000; 1.23665E-4
3287.109375; 1.15000E-4
3292.968750; 1.05015E-4
3298.828125; 1.10111E-4
3304.687500; 1.11684E-4
3310.546875; 1.03024E-4
3316.406250; 1.06846E-4
3322.265625; 1.12083E-4
3328.125000; 1.04425E-4
3333.984375; 1.05144E-4
3339.843750; 1.18946E-4
3345.703125; 1.05212E-4
3351.562500; 1.16532E-4
3357.421875; 1.18468E-4
3363.281250; 1.11225E-4
3369.140625; 1.19720E-4
3375.000000; 1.14139E-4
3380.859375; 1.09798E-4
3386.718750; 1.07593E-4
3392.578125; 1.08132E-4
3398.437500; 1.09157E-4
3404.296875; 1.18781E-4
3410.156250; 1.23058E-4
3416.015625; 1.07157E-4
3421.875000; 1.11421E-4
3427.734375; 1.09579E-4
3433.593750; 1.17650E-4
3439.453125; 1.05170E-4
3445.312500; 1.07526E-4
3451.171875; 1.08836E-4
3457.031250; 1.06369E-4
3462.890625; 9.64988E-5
3468.750000; 1.02461E-4
3474.609375; 1.02511E-4
3480.468750; 1.02058E-4
3486.328125; 1.05213E-4
3492.187500; 1.11966E-4
3498.046875; 1.14146E-4
3503.906250; 1.07328E-4
3509.765625; 9.97905E-5
3515.625000; 1.12572E-4
3521.484375; 1.34580E-4
3527.343750; 1.26093E-4
3533.203125; 1.08336E-4
3539.062500; 1.03433E-4
3544.921875; 1.10788E-4
3550.781250; 1.14294E-4
3556.640625; 1.10238E-4
3562.500000; 1.11655E-4
3568.359375; 1.13883E-4
3574.218750; 1.17283E-4
3580.078125; 1.08667E-4
3585.937500; 1.07478E-4
3591.796875; 1.14558E-4
3597.656250; 1.06757E-4
3603.515625; 1.09296E-4
3609.375000; 9.61364E-5
3615.234375; 1.06664E-4
3621.093750; 1.06626E-4
3626.953125; 1.05059E-4
3632.812500; 1.14623E-4
3638.671875; 1.15473E-4
3644.531250; 1.16693E-4
3650.390625; 1.07781E-4
3656.250000; 9.74341E-5
3662.109375; 1.09433E-4
3667.968750; 1.11516E-4
3673.828125; 1.11065E-4
3679.687500; 1.17270E-4
3685.546875; 1.16211E-4
3691.406250; 1.12315E-4
3697.265625; 1.05978E-4
3703.125000; 1.09450E-4
3708.984375; 9.64564E-5
3714.843750; 1.01478E-4
3720.703125; 1.16931E-4
3726.562500; 1.12075E-4
3732.421875; 1.05266E-4
3738.281250; 1.01921E-4
3744.140625; 9.78146E-5
3750.000000; 1.03127E-4
3755.859375; 1.11958E-4
3761.718750; 1.23022E-4
3767.578125; 1.01879E-4
3773.437500; 1.02432E-4
3779.296875; 1.15598E-4
3785.156250; 1.11634E-4
3791.015625; 1.16742E-4
3796.875000; 1.21383E-4
3802.734375; 1.17876E-4
3808.593750; 1.15077E-4
3814.453125; 1.16628E-4
3820.312500; 1.06710E-4
3826.171875; 9.70429E-5
3832.031250; 1.04917E-4
3837.890625; 1.00434E-4
3843.750000; 1.02561E-4
3849.609375; 1.03956E-4
3855.468750; 1.11333E-4
3861.328125; 1.12421E-4
3867.187500; 9.95611E-5
3873.046875; 1.06285E-4
3878.906250; 1.14043E-4
3884.765625; 1.03093E-4
3890.625000; 9.88604E-5
3896.484375; 1.12864E-4
3902.343750; 1.08943E-4
3908.203125; 1.20728E-4
3914.062500; 1.19409E-4
3919.921875; 1.14342E-4
3925.781250; 1.08374E-4
3931.640625; 1.07869E-4
3937.500000; 1.12790E-4
3943.359375; 1.09355E-4
3949.218750; 1.09109E-4
3955.078125; 9.91122E-5
3960.937500; 1.14655E-4
3966.796875; 1.14745E-4
3972.656250; 1.07514E-4
3978.515625; 1.10664E-4
3984.375000; 1.03467E-4
3990.234375; 1.90649E-4
3996.093750; 1.17874E-3
4001.953125; 1.48197E-3
4007.812500; 4.41232E-4
4013.671875; 1.15118E-4
4019.531250; 1.09107E-4
4025.390625; 1.17465E-4
4031.250000; 1.14405E-4
4037.109375; 1.25956E-4
4042.968750; 1.17951E-4
4048.828125; 1.06143E-4
4054.687500; 1.08034E-4
4060.546875; 1.12515E-4
4066.406250; 1.08465E-4
4072.265625; 1.12403E-4
4078.125000; 1.03033E-4
4083.984375; 1.04496E-4
4089.843750; 1.03857E-4
4095.703125; 1.06914E-4
4101.562500; 1.17254E-4
4107.421875; 1.15896E-4
4113.281250; 1.13987E-4
4119.140625; 1.12741E-4
4125.000000; 1.12073E-4
4130.859375; 1.15111E-4
4136.718750; 1.09547E-4
4142.578125; 1.02622E-4
4148.437500; 9.93766E-5
4154.296875; 1.05558E-4
4160.156250; 1.10880E-4
4166.015625; 1.06830E-4
4171.875000; 9.85676E-5
4177.734375; 9.72177E-5
4183.593750; 9.77954E-5
4189.453125; 1.09158E-4
4195.312500; 1.07754E-4
4201.171875; 1.05203E-4
4207.031250; 1.12377E-4
4212.890625; 1.10779E-4
4218.750000; 1.06840E-4
4224.609375; 1.06762E-4
4230.468750; 1.10483E-4
4236.328125; 1.05643E-4
4242.187500; 1.06230E-4
4248.046875; 1.19056E-4
4253.906250; 1.27534E-4
4259.765625; 1.23992E-4
4265.625000; 1.05647E-4
4271.484375; 1.11162E-4
4277.343750; 1.08337E-4
4283.203125; 1.02118E-4
4289.062500; 1.00506E-4
4294.921875; 1.05889E-4
4300.781250; 1.05896E-4
4306.640625; 1.19565E-4
4312.500000; 1.13085E-4
4318.359375; 1.04846E-4
4324.218750; 1.10458E-4
4330.078125; 1.10159E-4
4335.937500; 1.12919E-4
4341.796875; 1.09434E-4
4347.656250; 1.18187E-4
4353.515625; 1.13865E-4
4359.375000; 9.78117E-5
4365.234375; 9.97076E-5
4371.093750; 1.04256E-4
4376.953125; 1.03981E-4
4382.812500; 1.18464E-4
4388.671875; 1.19584E-4
4394.531250; 1.13315E-4
4400.390625; 1.09882E-4
4406.250000; 1.09772E-4
4412.109375; 1.10902E-4
4417.968750; 9.40875E-5
4423.828125; 9.68616E-5
4429.687500; 1.01718E-4
4435.546875; 1.17638E-4
4441.406250; 1.09249E-4
4447.265625; 1.10410E-4
4453.125000; 1.15319E-4
4458.984375; 1.06151E-4
4464.843750; 9.74096E-5
4470.703125; 1.06297E-4
4476.562500; 1.14158E-4
4482.421875; 1.06820E-4
4488.281250; 1.09565E-4
4494.140625; 1.13765E-4
4500.000000; 1.20432E-4
4505.859375; 1.13983E-4
4511.718750; 1.05039E-4
4517.578125; 1.01288E-4
4523.437500; 1.03299E-4
4529.296875; 9.41073E-5
4535.156250; 1.12107E-4
4541.015625; 1.12955E-4
4546.875000; 1.06022E-4
4552.734375; 1.05099E-4
4558.593750; 1.04420E-4
4564.453125; 1.14615E-4
4570.312500; 1.21830E-4
4576.171875; 1.14204E-4
4582.031250; 1.17035E-4
4587.890625; 1.13323E-4
4593.750000; 1.03200E-4
4599.609375; 1.00990E-4
4605.468750; 1.09011E-4
4611.328125; 1.13037E-4
4617.187500; 1.07684E-4
4623.046875; 1.09354E-4
4628.906250; 1.08153E-4
4634.765625; 1.12379E-4
4640.625000; 1.11593E-4
4646.484375; 1.10066E-4
4652.343750; 1.14695E-4
4658.203125; 1.12847E-4
4664.062500; 1.03294E-4
