* Measurement data measured by REW V5.31.3
* Source: PCM: default, no input selected, 2, volume: no control
* Format: 8192-point spectrum using Hann window and exponential averaging 0.97 
* Dated: Mar 9, 2025 1:16:10 PM
* REW Settings:
*  C-weighting compensation: Off
*  Target level: 75.0 dB
* Note: OSDEHA MU-OUTPUT; 8192-point spectrum using Hann window and exponential averaging 0.97  Input RMS 7.501 V 7.501 VC, 7.501 VA 7.501 V 22 - 22k UNW 959.2 uV >22k Distortion at 1,000.0 Hz, -22.50 dBFS: Gain: 29.68 dB THD: 0.011 % based on 21 harmonics  [0..22800 Hz] HHD: 0.0051 %  [10 .. 22] N: 0.19 %  [0..22800 Hz] N+D: 4.428 mV A THD+N: 0.19 %  [0..22800 Hz] SNR: 54.6 dB ENOB: 13.0 bits 2nd harmonic 0.0091 % 147 deg 3rd harmonic 0.0016 % 98 deg 4th harmonic 0.0015 % -122 deg 5th harmonic 0.0014 % 86 deg 6th harmonic 0.0014 % -89 deg 7th harmonic 0.0014 % 103 deg 8th harmonic 0.0014 % -138 deg 9th harmonic 0.0015 % 162 deg 
* Measurement: OSDEHA MU-OUT 7.50
* Smoothing: None
* Frequency Step: 5.859375 Hz
* Start Frequency: 5.859375 Hz
*
* Freq(Hz); V(V)
5.859375; 4.28694E-4
11.718750; 3.44348E-4
17.578125; 2.10925E-4
23.437500; 1.65550E-4
29.296875; 1.68105E-4
35.156250; 1.61462E-4
41.015625; 1.75348E-4
46.875000; 3.27460E-4
52.734375; 3.20960E-4
58.593750; 1.61768E-4
64.453125; 1.58090E-4
70.312500; 1.33627E-4
76.171875; 1.42922E-4
82.031250; 1.43146E-4
87.890625; 2.15318E-4
93.750000; 5.74431E-3
99.609375; 1.27715E-2
105.468750; 7.09019E-3
111.328125; 2.42363E-4
117.187500; 1.34593E-4
123.046875; 1.38770E-4
128.906250; 1.42455E-4
134.765625; 1.39318E-4
140.625000; 1.36547E-4
146.484375; 1.51734E-4
152.343750; 1.54330E-4
158.203125; 1.27328E-4
164.062500; 1.21146E-4
169.921875; 1.17607E-4
175.781250; 1.26922E-4
181.640625; 1.32870E-4
187.500000; 1.26346E-4
193.359375; 5.39338E-4
199.218750; 1.32766E-3
205.078125; 8.28258E-4
210.937500; 1.61462E-4
216.796875; 1.47185E-4
222.656250; 1.34994E-4
228.515625; 1.30956E-4
234.375000; 1.30668E-4
240.234375; 1.27955E-4
246.093750; 1.27582E-4
251.953125; 1.31266E-4
257.812500; 1.37655E-4
263.671875; 1.27109E-4
269.531250; 1.22607E-4
275.390625; 1.40168E-4
281.250000; 1.36207E-4
287.109375; 1.23365E-4
292.968750; 1.53704E-4
298.828125; 3.15246E-4
304.687500; 2.31909E-4
310.546875; 1.25470E-4
316.406250; 1.25437E-4
322.265625; 1.24686E-4
328.125000; 1.22736E-4
333.984375; 1.22315E-4
339.843750; 1.16878E-4
345.703125; 1.16604E-4
351.562500; 1.20306E-4
357.421875; 1.29900E-4
363.281250; 1.38941E-4
369.140625; 1.34918E-4
375.000000; 1.14798E-4
380.859375; 1.20801E-4
386.718750; 1.37820E-4
392.578125; 1.49414E-4
398.437500; 2.66255E-4
404.296875; 2.08262E-4
410.156250; 1.10496E-4
416.015625; 1.02209E-4
421.875000; 1.09653E-4
427.734375; 1.17951E-4
433.593750; 1.17718E-4
439.453125; 1.03424E-4
445.312500; 1.24931E-4
451.171875; 1.21695E-4
457.031250; 1.18441E-4
462.890625; 1.31512E-4
468.750000; 1.10986E-4
474.609375; 1.19681E-4
480.468750; 1.31084E-4
486.328125; 1.34076E-4
492.187500; 1.21609E-4
498.046875; 1.32234E-4
503.906250; 1.23526E-4
509.765625; 1.16729E-4
515.625000; 1.06989E-4
521.484375; 1.18865E-4
527.343750; 1.22643E-4
533.203125; 1.27261E-4
539.062500; 1.25033E-4
544.921875; 1.30580E-4
550.781250; 1.34299E-4
556.640625; 1.45172E-4
562.500000; 1.35899E-4
568.359375; 1.02594E-4
574.218750; 1.13945E-4
580.078125; 1.19613E-4
585.937500; 1.14801E-4
591.796875; 1.28500E-4
597.656250; 1.31072E-4
603.515625; 1.11305E-4
609.375000; 1.14878E-4
615.234375; 1.16697E-4
621.093750; 1.21788E-4
626.953125; 1.15648E-4
632.812500; 1.12104E-4
638.671875; 1.25256E-4
644.531250; 1.29409E-4
650.390625; 1.26009E-4
656.250000; 1.22969E-4
662.109375; 1.23211E-4
667.968750; 1.16760E-4
673.828125; 1.20852E-4
679.687500; 1.09576E-4
685.546875; 1.18878E-4
691.406250; 1.25444E-4
697.265625; 1.29695E-4
703.125000; 1.30191E-4
708.984375; 1.17185E-4
714.843750; 1.02130E-4
720.703125; 9.86485E-5
726.562500; 1.10406E-4
732.421875; 1.08124E-4
738.281250; 1.13740E-4
744.140625; 1.31915E-4
750.000000; 1.38993E-4
755.859375; 1.47737E-4
761.718750; 1.17963E-4
767.578125; 1.07395E-4
773.437500; 1.07140E-4
779.296875; 1.13650E-4
785.156250; 1.24839E-4
791.015625; 1.28085E-4
796.875000; 1.30471E-4
802.734375; 1.32189E-4
808.593750; 1.29587E-4
814.453125; 1.34175E-4
820.312500; 1.50654E-4
826.171875; 1.29529E-4
832.031250; 1.60226E-4
837.890625; 1.38923E-4
843.750000; 1.74173E-4
849.609375; 1.74955E-4
855.468750; 1.91394E-4
861.328125; 1.82197E-4
867.187500; 2.28276E-4
873.046875; 2.24771E-4
878.906250; 2.54724E-4
884.765625; 3.00542E-4
890.625000; 3.28777E-4
896.484375; 3.98213E-4
902.343750; 4.62234E-4
908.203125; 5.45632E-4
914.062500; 6.77805E-4
919.921875; 8.16998E-4
925.781250; 1.02915E-3
931.640625; 1.32013E-3
937.500000; 1.72917E-3
943.359375; 2.30836E-3
949.218750; 3.21498E-3
955.078125; 4.68410E-3
960.937500; 7.13203E-3
966.796875; 1.17293E-2
972.656250; 2.13342E-2
978.515625; 4.53099E-2
984.375000; 1.26881E-1
990.234375; 6.97902E-1
996.093750; 5.58311E0
1001.953125; 6.97889E0
1007.812500; 1.99397E0
1013.671875; 1.99398E-1
1019.531250; 6.13530E-2
1025.390625; 2.68306E-2
1031.250000; 1.41420E-2
1037.109375; 8.34563E-3
1042.968750; 5.34952E-3
1048.828125; 3.61351E-3
1054.687500; 2.56745E-3
1060.546875; 1.91145E-3
1066.406250; 1.44049E-3
1072.265625; 1.10251E-3
1078.125000; 9.03730E-4
1083.984375; 6.98957E-4
1089.843750; 5.94875E-4
1095.703125; 4.83723E-4
1101.562500; 4.08169E-4
1107.421875; 3.64839E-4
1113.281250; 3.24490E-4
1119.140625; 2.44955E-4
1125.000000; 2.57944E-4
1130.859375; 2.19185E-4
1136.718750; 1.79426E-4
1142.578125; 1.90287E-4
1148.437500; 1.61312E-4
1154.296875; 1.67375E-4
1160.156250; 1.50095E-4
1166.015625; 1.51670E-4
1171.875000; 1.25105E-4
1177.734375; 1.31534E-4
1183.593750; 1.36382E-4
1189.453125; 1.36081E-4
1195.312500; 1.23849E-4
1201.171875; 1.22394E-4
1207.031250; 1.24722E-4
1212.890625; 1.21309E-4
1218.750000; 1.25467E-4
1224.609375; 1.20279E-4
1230.468750; 1.13462E-4
1236.328125; 1.07906E-4
1242.187500; 1.15797E-4
1248.046875; 1.21332E-4
1253.906250; 1.31655E-4
1259.765625; 1.19047E-4
1265.625000; 1.15356E-4
1271.484375; 1.09301E-4
1277.343750; 1.23615E-4
1283.203125; 1.15288E-4
1289.062500; 1.05809E-4
1294.921875; 1.09147E-4
1300.781250; 1.34534E-4
1306.640625; 1.25648E-4
1312.500000; 1.24821E-4
1318.359375; 1.33788E-4
1324.218750; 1.34023E-4
1330.078125; 1.30149E-4
1335.937500; 1.10144E-4
1341.796875; 1.12834E-4
1347.656250; 1.18238E-4
1353.515625; 1.28458E-4
1359.375000; 1.19636E-4
1365.234375; 1.15295E-4
1371.093750; 1.09332E-4
1376.953125; 1.28590E-4
1382.812500; 1.19622E-4
1388.671875; 1.11442E-4
1394.531250; 1.14068E-4
1400.390625; 1.14221E-4
1406.250000; 1.12232E-4
1412.109375; 1.07208E-4
1417.968750; 9.05420E-5
1423.828125; 1.02135E-4
1429.687500; 1.18975E-4
1435.546875; 1.27284E-4
1441.406250; 1.13772E-4
1447.265625; 1.11855E-4
1453.125000; 1.18067E-4
1458.984375; 9.52157E-5
1464.843750; 1.09301E-4
1470.703125; 1.21915E-4
1476.562500; 1.06754E-4
1482.421875; 1.01435E-4
1488.281250; 9.71630E-5
1494.140625; 1.21481E-4
1500.000000; 1.14014E-4
1505.859375; 1.00572E-4
1511.718750; 1.14284E-4
1517.578125; 1.25791E-4
1523.437500; 1.17558E-4
1529.296875; 1.18682E-4
1535.156250; 1.21875E-4
1541.015625; 1.31376E-4
1546.875000; 1.22289E-4
1552.734375; 1.19168E-4
1558.593750; 1.10690E-4
1564.453125; 1.10998E-4
1570.312500; 1.05825E-4
1576.171875; 1.18381E-4
1582.031250; 1.07669E-4
1587.890625; 1.05982E-4
1593.750000; 1.16270E-4
1599.609375; 1.16724E-4
1605.468750; 1.14881E-4
1611.328125; 1.12451E-4
1617.187500; 1.06035E-4
1623.046875; 1.10589E-4
1628.906250; 9.79673E-5
1634.765625; 9.80346E-5
1640.625000; 1.10593E-4
1646.484375; 1.13013E-4
1652.343750; 1.08779E-4
1658.203125; 1.11527E-4
1664.062500; 1.20679E-4
1669.921875; 1.20945E-4
1675.781250; 1.15734E-4
1681.640625; 1.17976E-4
1687.500000; 1.09441E-4
1693.359375; 1.14690E-4
1699.218750; 1.16125E-4
1705.078125; 1.05099E-4
1710.937500; 1.13295E-4
1716.796875; 1.11170E-4
1722.656250; 1.15046E-4
1728.515625; 1.17020E-4
1734.375000; 1.12879E-4
1740.234375; 1.00868E-4
1746.093750; 1.11724E-4
1751.953125; 1.10052E-4
1757.812500; 1.09080E-4
1763.671875; 1.10411E-4
1769.531250; 1.08836E-4
1775.390625; 1.24005E-4
1781.250000; 1.21941E-4
1787.109375; 1.12876E-4
1792.968750; 1.13595E-4
1798.828125; 1.15043E-4
1804.687500; 1.14283E-4
1810.546875; 1.13255E-4
1816.406250; 1.24215E-4
1822.265625; 1.29615E-4
1828.125000; 1.11237E-4
1833.984375; 1.05775E-4
1839.843750; 1.07991E-4
1845.703125; 1.06554E-4
1851.562500; 1.04191E-4
1857.421875; 1.08236E-4
1863.281250; 1.12752E-4
1869.140625; 1.21466E-4
1875.000000; 1.22061E-4
1880.859375; 1.17442E-4
1886.718750; 1.17781E-4
1892.578125; 1.12191E-4
1898.437500; 1.10911E-4
1904.296875; 1.05930E-4
1910.156250; 1.10528E-4
1916.015625; 1.16817E-4
1921.875000; 9.96471E-5
1927.734375; 1.07211E-4
1933.593750; 1.13315E-4
1939.453125; 1.05180E-4
1945.312500; 1.13296E-4
1951.171875; 1.22051E-4
1957.031250; 1.15729E-4
1962.890625; 1.23572E-4
1968.750000; 1.15263E-4
1974.609375; 1.18600E-4
1980.468750; 1.22487E-4
1986.328125; 1.22778E-4
1992.187500; 2.08235E-4
1998.046875; 5.96063E-4
2003.906250; 4.86625E-4
2009.765625; 1.35610E-4
2015.625000; 9.89417E-5
2021.484375; 1.01007E-4
2027.343750; 1.08112E-4
2033.203125; 1.16339E-4
2039.062500; 1.11786E-4
2044.921875; 1.00478E-4
2050.781250; 1.07068E-4
2056.640625; 1.07463E-4
2062.500000; 1.15264E-4
2068.359375; 1.23033E-4
2074.218750; 1.16891E-4
2080.078125; 1.14639E-4
2085.937500; 1.14422E-4
2091.796875; 1.13527E-4
2097.656250; 1.05272E-4
2103.515625; 1.12205E-4
2109.375000; 1.22028E-4
2115.234375; 1.20532E-4
2121.093750; 1.14670E-4
2126.953125; 1.07612E-4
2132.812500; 1.07477E-4
2138.671875; 1.02857E-4
2144.531250; 1.20181E-4
2150.390625; 1.19649E-4
2156.250000; 1.16651E-4
2162.109375; 1.19386E-4
2167.968750; 1.12763E-4
2173.828125; 1.01282E-4
2179.687500; 1.02302E-4
2185.546875; 1.22982E-4
2191.406250; 1.27760E-4
2197.265625; 1.13887E-4
2203.125000; 9.84763E-5
2208.984375; 1.01170E-4
2214.843750; 1.26944E-4
2220.703125; 1.22657E-4
2226.562500; 1.11032E-4
2232.421875; 1.05664E-4
2238.281250; 1.25408E-4
2244.140625; 1.27612E-4
2250.000000; 1.11962E-4
2255.859375; 1.14340E-4
2261.718750; 1.16568E-4
2267.578125; 1.00424E-4
2273.437500; 1.00042E-4
2279.296875; 9.79487E-5
2285.156250; 1.09261E-4
2291.015625; 1.09644E-4
2296.875000; 1.05917E-4
2302.734375; 1.15190E-4
2308.593750; 1.04249E-4
2314.453125; 1.02812E-4
2320.312500; 1.12010E-4
2326.171875; 1.19326E-4
2332.031250; 1.17582E-4
2337.890625; 1.16712E-4
2343.750000; 1.06234E-4
2349.609375; 1.11458E-4
2355.468750; 1.22424E-4
2361.328125; 1.20583E-4
2367.187500; 1.13651E-4
2373.046875; 9.85938E-5
2378.906250; 1.17739E-4
2384.765625; 1.15020E-4
2390.625000; 1.07644E-4
2396.484375; 1.12830E-4
2402.343750; 1.13389E-4
2408.203125; 1.05559E-4
2414.062500; 1.01498E-4
2419.921875; 1.11555E-4
2425.781250; 1.09170E-4
2431.640625; 1.13615E-4
2437.500000; 1.09821E-4
2443.359375; 1.05422E-4
2449.218750; 1.02260E-4
2455.078125; 1.04387E-4
2460.937500; 1.10744E-4
2466.796875; 1.08718E-4
2472.656250; 1.13314E-4
2478.515625; 1.14726E-4
2484.375000; 1.16916E-4
2490.234375; 1.10821E-4
2496.093750; 1.16006E-4
2501.953125; 1.20771E-4
2507.812500; 1.18079E-4
2513.671875; 1.13525E-4
2519.531250; 1.13971E-4
2525.390625; 1.06310E-4
2531.250000; 1.00341E-4
2537.109375; 1.00074E-4
2542.968750; 1.05214E-4
2548.828125; 1.13742E-4
2554.687500; 1.16256E-4
2560.546875; 1.12707E-4
2566.406250; 9.83265E-5
2572.265625; 9.82764E-5
2578.125000; 1.01780E-4
2583.984375; 1.17975E-4
2589.843750; 1.18058E-4
2595.703125; 1.09852E-4
2601.562500; 1.04374E-4
2607.421875; 1.07812E-4
2613.281250; 1.07929E-4
2619.140625; 1.19841E-4
2625.000000; 1.07986E-4
2630.859375; 1.17205E-4
2636.718750; 1.15753E-4
2642.578125; 1.04328E-4
2648.437500; 9.97226E-5
2654.296875; 1.07892E-4
2660.156250; 1.13484E-4
2666.015625; 1.22724E-4
2671.875000; 1.17337E-4
2677.734375; 1.15872E-4
2683.593750; 1.16237E-4
2689.453125; 1.10114E-4
2695.312500; 1.01041E-4
2701.171875; 1.14364E-4
2707.031250; 1.01077E-4
2712.890625; 1.03561E-4
2718.750000; 1.13612E-4
2724.609375; 1.17769E-4
2730.468750; 1.12282E-4
2736.328125; 1.06412E-4
2742.187500; 1.01223E-4
2748.046875; 1.04587E-4
2753.906250; 1.09304E-4
2759.765625; 1.05455E-4
2765.625000; 9.22341E-5
2771.484375; 8.97290E-5
2777.343750; 1.09830E-4
2783.203125; 1.05153E-4
2789.062500; 9.92286E-5
2794.921875; 1.05906E-4
2800.781250; 1.13236E-4
2806.640625; 1.21708E-4
2812.500000; 1.13432E-4
2818.359375; 1.05824E-4
2824.218750; 1.04144E-4
2830.078125; 1.13961E-4
2835.937500; 1.14806E-4
2841.796875; 1.01298E-4
2847.656250; 1.00804E-4
2853.515625; 1.06773E-4
2859.375000; 1.11732E-4
2865.234375; 1.09256E-4
2871.093750; 1.06237E-4
2876.953125; 1.21021E-4
2882.812500; 1.15242E-4
2888.671875; 1.13174E-4
2894.531250; 1.08115E-4
2900.390625; 1.09725E-4
2906.250000; 1.03588E-4
2912.109375; 1.11410E-4
2917.968750; 1.03369E-4
2923.828125; 9.94356E-5
2929.687500; 1.05548E-4
2935.546875; 1.05577E-4
2941.406250; 1.00549E-4
2947.265625; 1.11698E-4
2953.125000; 1.00950E-4
2958.984375; 1.01879E-4
2964.843750; 1.02979E-4
2970.703125; 1.06338E-4
2976.562500; 1.20251E-4
2982.421875; 1.30859E-4
2988.281250; 1.23891E-4
2994.140625; 1.04314E-4
3000.000000; 1.24620E-4
3005.859375; 1.25417E-4
3011.718750; 1.04415E-4
3017.578125; 1.06121E-4
3023.437500; 1.13232E-4
3029.296875; 1.03797E-4
3035.156250; 1.03821E-4
3041.015625; 1.19152E-4
3046.875000; 1.17535E-4
3052.734375; 1.09395E-4
3058.593750; 9.80715E-5
3064.453125; 1.02794E-4
3070.312500; 1.17046E-4
3076.171875; 1.34148E-4
3082.031250; 1.19156E-4
3087.890625; 1.06912E-4
3093.750000; 1.10895E-4
3099.609375; 1.05313E-4
3105.468750; 1.12437E-4
3111.328125; 1.17503E-4
3117.187500; 1.14607E-4
3123.046875; 1.11361E-4
3128.906250; 1.00204E-4
3134.765625; 1.07025E-4
3140.625000; 1.16812E-4
3146.484375; 1.07275E-4
3152.343750; 1.06644E-4
3158.203125; 1.08743E-4
3164.062500; 1.06679E-4
3169.921875; 1.09447E-4
3175.781250; 1.13484E-4
3181.640625; 1.10768E-4
3187.500000; 1.12817E-4
3193.359375; 1.13146E-4
3199.218750; 1.12771E-4
3205.078125; 1.20587E-4
3210.937500; 1.16148E-4
3216.796875; 1.24310E-4
3222.656250; 1.33373E-4
3228.515625; 1.16964E-4
3234.375000; 1.14414E-4
3240.234375; 1.10343E-4
3246.093750; 1.08320E-4
3251.953125; 1.12463E-4
3257.812500; 1.02822E-4
3263.671875; 1.13943E-4
3269.531250; 1.10781E-4
3275.390625; 9.95444E-5
3281.250000; 1.08495E-4
3287.109375; 9.69921E-5
3292.968750; 1.06628E-4
3298.828125; 1.16666E-4
3304.687500; 1.05542E-4
3310.546875; 1.24994E-4
3316.406250; 1.28068E-4
3322.265625; 1.17807E-4
3328.125000; 1.01092E-4
3333.984375; 1.01320E-4
3339.843750; 9.78427E-5
3345.703125; 1.01702E-4
3351.562500; 1.06930E-4
3357.421875; 1.09275E-4
3363.281250; 1.13187E-4
3369.140625; 1.23737E-4
3375.000000; 1.15683E-4
3380.859375; 1.08032E-4
3386.718750; 1.09159E-4
3392.578125; 1.29236E-4
3398.437500; 1.35915E-4
3404.296875; 1.24132E-4
3410.156250; 1.32263E-4
3416.015625; 1.21016E-4
3421.875000; 1.11524E-4
3427.734375; 1.02901E-4
3433.593750; 9.49665E-5
3439.453125; 1.01195E-4
3445.312500; 1.05467E-4
3451.171875; 1.03183E-4
3457.031250; 1.04365E-4
3462.890625; 1.14012E-4
3468.750000; 1.30225E-4
3474.609375; 1.14751E-4
3480.468750; 1.08998E-4
3486.328125; 1.01044E-4
3492.187500; 1.08829E-4
3498.046875; 1.08225E-4
3503.906250; 9.72609E-5
3509.765625; 1.05792E-4
3515.625000; 9.37072E-5
3521.484375; 9.97474E-5
3527.343750; 9.89251E-5
3533.203125; 8.73517E-5
3539.062500; 1.05689E-4
3544.921875; 1.22212E-4
3550.781250; 1.21260E-4
3556.640625; 1.14229E-4
3562.500000; 1.05300E-4
3568.359375; 1.17188E-4
3574.218750; 1.11186E-4
3580.078125; 1.17378E-4
3585.937500; 1.23128E-4
3591.796875; 1.15878E-4
3597.656250; 1.04278E-4
3603.515625; 1.03295E-4
3609.375000; 1.14509E-4
3615.234375; 1.09185E-4
3621.093750; 1.14715E-4
3626.953125; 1.21248E-4
3632.812500; 1.24540E-4
3638.671875; 1.12883E-4
3644.531250; 1.19513E-4
3650.390625; 1.10950E-4
3656.250000; 1.00753E-4
3662.109375; 1.11000E-4
3667.968750; 1.24913E-4
3673.828125; 1.25283E-4
3679.687500; 1.13429E-4
3685.546875; 1.07916E-4
3691.406250; 1.06164E-4
3697.265625; 1.09690E-4
3703.125000; 1.08500E-4
3708.984375; 1.09076E-4
3714.843750; 1.16262E-4
3720.703125; 1.10822E-4
3726.562500; 1.13304E-4
3732.421875; 1.17805E-4
3738.281250; 1.08325E-4
3744.140625; 1.03448E-4
3750.000000; 1.12042E-4
3755.859375; 9.11214E-5
3761.718750; 1.12530E-4
3767.578125; 1.08987E-4
3773.437500; 1.06540E-4
3779.296875; 1.10873E-4
3785.156250; 9.83324E-5
3791.015625; 9.45774E-5
3796.875000; 9.29713E-5
3802.734375; 1.14171E-4
3808.593750; 1.18766E-4
3814.453125; 1.10042E-4
3820.312500; 1.07116E-4
3826.171875; 1.03884E-4
3832.031250; 1.01044E-4
3837.890625; 1.10597E-4
3843.750000; 1.13186E-4
3849.609375; 1.07814E-4
3855.468750; 1.14048E-4
3861.328125; 1.09460E-4
3867.187500; 1.13784E-4
3873.046875; 1.03584E-4
3878.906250; 1.01770E-4
3884.765625; 1.08445E-4
3890.625000; 1.16392E-4
3896.484375; 1.12644E-4
3902.343750; 1.23425E-4
3908.203125; 1.22847E-4
3914.062500; 1.03460E-4
3919.921875; 1.03400E-4
3925.781250; 1.15609E-4
3931.640625; 1.06954E-4
3937.500000; 9.71075E-5
3943.359375; 1.04976E-4
3949.218750; 1.19602E-4
3955.078125; 1.25576E-4
3960.937500; 1.09598E-4
3966.796875; 1.02117E-4
3972.656250; 1.12897E-4
3978.515625; 1.21223E-4
3984.375000; 1.08046E-4
3990.234375; 1.08212E-4
3996.093750; 1.17296E-4
4001.953125; 1.16920E-4
4007.812500; 1.06613E-4
4013.671875; 1.09952E-4
4019.531250; 1.19170E-4
4025.390625; 1.09585E-4
4031.250000; 1.07417E-4
4037.109375; 9.80705E-5
4042.968750; 1.11997E-4
4048.828125; 1.22117E-4
4054.687500; 1.27919E-4
4060.546875; 1.26204E-4
4066.406250; 1.19535E-4
4072.265625; 1.08684E-4
4078.125000; 1.19509E-4
4083.984375; 1.20734E-4
4089.843750; 1.05663E-4
4095.703125; 1.06808E-4
4101.562500; 1.06935E-4
4107.421875; 1.08125E-4
4113.281250; 1.04329E-4
4119.140625; 1.09419E-4
4125.000000; 1.09578E-4
4130.859375; 1.15423E-4
4136.718750; 1.13238E-4
4142.578125; 1.15464E-4
4148.437500; 1.10514E-4
4154.296875; 1.07432E-4
4160.156250; 1.12542E-4
4166.015625; 1.16318E-4
4171.875000; 1.17579E-4
4177.734375; 1.11594E-4
4183.593750; 1.04546E-4
4189.453125; 1.10916E-4
4195.312500; 1.00575E-4
4201.171875; 1.05277E-4
4207.031250; 1.01127E-4
4212.890625; 1.08413E-4
4218.750000; 1.20525E-4
4224.609375; 1.17522E-4
4230.468750; 1.11950E-4
4236.328125; 1.16234E-4
4242.187500; 1.17609E-4
4248.046875; 1.10628E-4
4253.906250; 1.09467E-4
4259.765625; 1.13070E-4
4265.625000; 1.08772E-4
4271.484375; 1.02397E-4
4277.343750; 1.01376E-4
4283.203125; 1.04921E-4
4289.062500; 1.11348E-4
4294.921875; 1.13095E-4
4300.781250; 1.06244E-4
4306.640625; 1.02774E-4
4312.500000; 1.08230E-4
4318.359375; 1.02145E-4
4324.218750; 1.10860E-4
4330.078125; 9.69357E-5
4335.937500; 1.03131E-4
4341.796875; 1.07635E-4
4347.656250; 1.13622E-4
4353.515625; 1.11113E-4
4359.375000; 1.10819E-4
4365.234375; 1.11215E-4
4371.093750; 1.08809E-4
4376.953125; 1.06781E-4
4382.812500; 1.08431E-4
4388.671875; 9.49802E-5
4394.531250; 9.84392E-5
4400.390625; 1.08750E-4
4406.250000; 1.03198E-4
4412.109375; 1.07632E-4
4417.968750; 1.00275E-4
4423.828125; 1.05825E-4
4429.687500; 9.53036E-5
4435.546875; 1.00228E-4
4441.406250; 1.14324E-4
4447.265625; 1.22449E-4
4453.125000; 1.31435E-4
4458.984375; 1.22818E-4
4464.843750; 1.11703E-4
4470.703125; 1.02759E-4
4476.562500; 9.61115E-5
4482.421875; 1.01066E-4
4488.281250; 1.05008E-4
4494.140625; 1.01872E-4
4500.000000; 1.02368E-4
4505.859375; 1.21107E-4
4511.718750; 1.08681E-4
4517.578125; 1.09521E-4
4523.437500; 1.07960E-4
4529.296875; 1.15827E-4
4535.156250; 1.06834E-4
4541.015625; 1.15586E-4
4546.875000; 1.20073E-4
4552.734375; 1.19604E-4
4558.593750; 1.10803E-4
4564.453125; 1.05722E-4
4570.312500; 1.03620E-4
4576.171875; 1.04395E-4
4582.031250; 1.06368E-4
4587.890625; 1.05087E-4
4593.750000; 1.08374E-4
4599.609375; 1.08108E-4
4605.468750; 1.04348E-4
4611.328125; 9.76963E-5
4617.187500; 1.00096E-4
4623.046875; 1.09313E-4
4628.906250; 9.94494E-5
4634.765625; 9.93111E-5
4640.625000; 1.02266E-4
4646.484375; 1.16657E-4
4652.343750; 1.24295E-4
4658.203125; 1.24927E-4
4664.062500; 1.10902E-4
