* Measurement data measured by REW V5.31.3
* Source: PCM: default, no input selected, 2, volume: no control
* Format: 8192-point spectrum using Hann window and exponential averaging 0.97 
* Dated: Mar 9, 2025 1:22:23 PM
* REW Settings:
*  C-weighting compensation: Off
*  Target level: 75.0 dB
* Note: OSDEHA MU-OUTPUT; 8192-point spectrum using Hann window and exponential averaging 0.97  Input RMS 1.333 V 1.333 VC, 1.333 VA 1.333 V 22 - 22k UNW 947.8 uV >22k Distortion at 1,000.0 Hz, -37.50 dBFS: Gain: 29.68 dB THD: 0.037 % based on 21 harmonics  [0..22800 Hz] HHD: 0.029 %  [10 .. 22] N: 1.06 %  [0..22800 Hz] N+D: 4.358 mV A THD+N: 1.06 %  [0..22800 Hz] SNR: 39.5 dB ENOB: 13.0 bits 2nd harmonic 0.0083 % 78 deg 3rd harmonic 0.0076 % -84 deg 4th harmonic 0.0080 % -52 deg 5th harmonic 0.0078 % 22 deg 6th harmonic 0.0086 % 68 deg 7th harmonic 0.0079 % 48 deg 8th harmonic 0.0085 % -141 deg 9th harmonic 0.0078 % -116 deg 
* Measurement: OSDEHA MU-OUT 1.33V
* Smoothing: None
* Frequency Step: 5.859375 Hz
* Start Frequency: 5.859375 Hz
*
* Freq(Hz); V(V)
5.859375; 1.97203E-4
11.718750; 2.39857E-4
17.578125; 2.10860E-4
23.437500; 1.55832E-4
29.296875; 1.52479E-4
35.156250; 1.35920E-4
41.015625; 1.51157E-4
46.875000; 3.12278E-4
52.734375; 3.03482E-4
58.593750; 1.47744E-4
64.453125; 1.41808E-4
70.312500; 1.56507E-4
76.171875; 1.53025E-4
82.031250; 1.53698E-4
87.890625; 1.77660E-4
93.750000; 5.85228E-3
99.609375; 1.28911E-2
105.468750; 7.09739E-3
111.328125; 2.13876E-4
117.187500; 1.56992E-4
123.046875; 1.54795E-4
128.906250; 1.35533E-4
134.765625; 1.33330E-4
140.625000; 1.45426E-4
146.484375; 1.57515E-4
152.343750; 1.44385E-4
158.203125; 1.23376E-4
164.062500; 1.38473E-4
169.921875; 1.31596E-4
175.781250; 1.29833E-4
181.640625; 1.12848E-4
187.500000; 1.34082E-4
193.359375; 5.57406E-4
199.218750; 1.36244E-3
205.078125; 8.52071E-4
210.937500; 1.51430E-4
216.796875; 1.21237E-4
222.656250; 1.21168E-4
228.515625; 1.26650E-4
234.375000; 1.12993E-4
240.234375; 1.24559E-4
246.093750; 1.48849E-4
251.953125; 1.55043E-4
257.812500; 1.32492E-4
263.671875; 1.10786E-4
269.531250; 1.11673E-4
275.390625; 1.21683E-4
281.250000; 1.19455E-4
287.109375; 1.21834E-4
292.968750; 1.66548E-4
298.828125; 3.15625E-4
304.687500; 2.43258E-4
310.546875; 1.22374E-4
316.406250; 1.20402E-4
322.265625; 1.08942E-4
328.125000; 1.10104E-4
333.984375; 1.25575E-4
339.843750; 1.19718E-4
345.703125; 1.26787E-4
351.562500; 1.27301E-4
357.421875; 1.15108E-4
363.281250; 1.25027E-4
369.140625; 1.29000E-4
375.000000; 1.21693E-4
380.859375; 1.15225E-4
386.718750; 1.15279E-4
392.578125; 1.36973E-4
398.437500; 2.77727E-4
404.296875; 2.12617E-4
410.156250; 1.13673E-4
416.015625; 1.13442E-4
421.875000; 1.20885E-4
427.734375; 1.33788E-4
433.593750; 1.24670E-4
439.453125; 1.15993E-4
445.312500; 1.19101E-4
451.171875; 1.10579E-4
457.031250; 1.06496E-4
462.890625; 1.02751E-4
468.750000; 1.20801E-4
474.609375; 1.18867E-4
480.468750; 1.13464E-4
486.328125; 1.25626E-4
492.187500; 1.44601E-4
498.046875; 1.49184E-4
503.906250; 1.24942E-4
509.765625; 1.18167E-4
515.625000; 1.26771E-4
521.484375; 1.34022E-4
527.343750; 1.31176E-4
533.203125; 1.17321E-4
539.062500; 9.77374E-5
544.921875; 1.20777E-4
550.781250; 1.26436E-4
556.640625; 1.07343E-4
562.500000; 1.00759E-4
568.359375; 1.02815E-4
574.218750; 1.24762E-4
580.078125; 1.14919E-4
585.937500; 9.77938E-5
591.796875; 1.19412E-4
597.656250; 1.25045E-4
603.515625; 1.07220E-4
609.375000; 1.06401E-4
615.234375; 1.13069E-4
621.093750; 1.16913E-4
626.953125; 1.04828E-4
632.812500; 1.21810E-4
638.671875; 1.18023E-4
644.531250; 1.14664E-4
650.390625; 1.21132E-4
656.250000; 1.11972E-4
662.109375; 1.18342E-4
667.968750; 1.12018E-4
673.828125; 1.04495E-4
679.687500; 9.55455E-5
685.546875; 1.14590E-4
691.406250; 1.22122E-4
697.265625; 1.23885E-4
703.125000; 1.30870E-4
708.984375; 1.31395E-4
714.843750; 1.11581E-4
720.703125; 1.00104E-4
726.562500; 1.09139E-4
732.421875; 1.12687E-4
738.281250; 1.22843E-4
744.140625; 1.12567E-4
750.000000; 1.19538E-4
755.859375; 1.11400E-4
761.718750; 1.19490E-4
767.578125; 1.19908E-4
773.437500; 1.13989E-4
779.296875; 1.23449E-4
785.156250; 1.17263E-4
791.015625; 1.18134E-4
796.875000; 1.26166E-4
802.734375; 1.23262E-4
808.593750; 1.13655E-4
814.453125; 1.17014E-4
820.312500; 1.12458E-4
826.171875; 1.21354E-4
832.031250; 1.14275E-4
837.890625; 1.17872E-4
843.750000; 1.38211E-4
849.609375; 1.35900E-4
855.468750; 1.11623E-4
861.328125; 1.20593E-4
867.187500; 1.20517E-4
873.046875; 1.19191E-4
878.906250; 1.11925E-4
884.765625; 1.18181E-4
890.625000; 1.26283E-4
896.484375; 1.30051E-4
902.343750; 1.27359E-4
908.203125; 1.57562E-4
914.062500; 1.64827E-4
919.921875; 1.98245E-4
925.781250; 1.90230E-4
931.640625; 2.55002E-4
937.500000; 3.43965E-4
943.359375; 4.13341E-4
949.218750; 5.84371E-4
955.078125; 8.30888E-4
960.937500; 1.28939E-3
966.796875; 2.08928E-3
972.656250; 3.77692E-3
978.515625; 8.06102E-3
984.375000; 2.25584E-2
990.234375; 1.24028E-1
996.093750; 9.92332E-1
1001.953125; 1.24043E0
1007.812500; 3.54418E-1
1013.671875; 3.54298E-2
1019.531250; 1.09237E-2
1025.390625; 4.76253E-3
1031.250000; 2.50833E-3
1037.109375; 1.49815E-3
1042.968750; 9.44838E-4
1048.828125; 6.55378E-4
1054.687500; 4.75608E-4
1060.546875; 3.53003E-4
1066.406250; 2.94691E-4
1072.265625; 2.13366E-4
1078.125000; 1.75581E-4
1083.984375; 1.84827E-4
1089.843750; 1.37462E-4
1095.703125; 1.48052E-4
1101.562500; 1.31989E-4
1107.421875; 1.26649E-4
1113.281250; 1.18066E-4
1119.140625; 1.27166E-4
1125.000000; 1.22447E-4
1130.859375; 1.22695E-4
1136.718750; 1.13929E-4
1142.578125; 1.10688E-4
1148.437500; 1.14562E-4
1154.296875; 1.17847E-4
1160.156250; 1.04709E-4
1166.015625; 1.11412E-4
1171.875000; 1.27125E-4
1177.734375; 1.06326E-4
1183.593750; 1.13042E-4
1189.453125; 1.19353E-4
1195.312500; 1.07064E-4
1201.171875; 1.07013E-4
1207.031250; 1.02139E-4
1212.890625; 1.05870E-4
1218.750000; 1.14545E-4
1224.609375; 1.20164E-4
1230.468750; 1.20168E-4
1236.328125; 9.96374E-5
1242.187500; 9.97217E-5
1248.046875; 1.11419E-4
1253.906250; 1.21625E-4
1259.765625; 1.04644E-4
1265.625000; 1.06801E-4
1271.484375; 1.00713E-4
1277.343750; 1.20166E-4
1283.203125; 1.18807E-4
1289.062500; 1.36559E-4
1294.921875; 1.22977E-4
1300.781250; 1.05448E-4
1306.640625; 1.17385E-4
1312.500000; 1.14401E-4
1318.359375; 1.00678E-4
1324.218750; 1.13451E-4
1330.078125; 1.00327E-4
1335.937500; 1.14818E-4
1341.796875; 1.17680E-4
1347.656250; 1.13666E-4
1353.515625; 1.08136E-4
1359.375000; 1.02689E-4
1365.234375; 1.09654E-4
1371.093750; 1.18875E-4
1376.953125; 1.25372E-4
1382.812500; 1.09414E-4
1388.671875; 1.10823E-4
1394.531250; 1.15627E-4
1400.390625; 1.14366E-4
1406.250000; 1.01628E-4
1412.109375; 1.12535E-4
1417.968750; 1.23518E-4
1423.828125; 1.00835E-4
1429.687500; 9.73742E-5
1435.546875; 1.07674E-4
1441.406250; 1.04924E-4
1447.265625; 1.13539E-4
1453.125000; 1.16053E-4
1458.984375; 1.10196E-4
1464.843750; 1.24365E-4
1470.703125; 1.17675E-4
1476.562500; 1.20298E-4
1482.421875; 1.17458E-4
1488.281250; 1.03864E-4
1494.140625; 1.05777E-4
1500.000000; 1.09645E-4
1505.859375; 1.09795E-4
1511.718750; 1.12604E-4
1517.578125; 1.02582E-4
1523.437500; 1.10667E-4
1529.296875; 1.17604E-4
1535.156250; 1.10832E-4
1541.015625; 1.09813E-4
1546.875000; 1.08121E-4
1552.734375; 9.76306E-5
1558.593750; 1.02915E-4
1564.453125; 9.61017E-5
1570.312500; 1.06014E-4
1576.171875; 1.10488E-4
1582.031250; 1.04035E-4
1587.890625; 1.11191E-4
1593.750000; 1.25859E-4
1599.609375; 1.23028E-4
1605.468750; 1.13626E-4
1611.328125; 1.17604E-4
1617.187500; 1.09463E-4
1623.046875; 1.20810E-4
1628.906250; 1.04766E-4
1634.765625; 1.07623E-4
1640.625000; 1.07369E-4
1646.484375; 1.06524E-4
1652.343750; 1.04665E-4
1658.203125; 1.07548E-4
1664.062500; 1.17545E-4
1669.921875; 1.14454E-4
1675.781250; 1.16591E-4
1681.640625; 1.16243E-4
1687.500000; 1.18597E-4
1693.359375; 1.12791E-4
1699.218750; 1.07143E-4
1705.078125; 1.08022E-4
1710.937500; 1.02030E-4
1716.796875; 1.16735E-4
1722.656250; 1.08348E-4
1728.515625; 8.85794E-5
1734.375000; 9.93703E-5
1740.234375; 1.15588E-4
1746.093750; 1.23737E-4
1751.953125; 1.09026E-4
1757.812500; 1.11700E-4
1763.671875; 1.10700E-4
1769.531250; 1.17773E-4
1775.390625; 1.14103E-4
1781.250000; 1.05554E-4
1787.109375; 9.54277E-5
1792.968750; 1.05839E-4
1798.828125; 1.14554E-4
1804.687500; 1.18983E-4
1810.546875; 1.11812E-4
1816.406250; 1.16767E-4
1822.265625; 1.39976E-4
1828.125000; 1.23883E-4
1833.984375; 1.20494E-4
1839.843750; 1.16771E-4
1845.703125; 1.12027E-4
1851.562500; 1.09763E-4
1857.421875; 1.12948E-4
1863.281250; 1.08544E-4
1869.140625; 1.01328E-4
1875.000000; 1.00018E-4
1880.859375; 1.08637E-4
1886.718750; 1.11076E-4
1892.578125; 1.04420E-4
1898.437500; 9.50700E-5
1904.296875; 9.55999E-5
1910.156250; 1.12865E-4
1916.015625; 1.22414E-4
1921.875000; 1.12815E-4
1927.734375; 1.15604E-4
1933.593750; 1.16932E-4
1939.453125; 1.05726E-4
1945.312500; 9.51460E-5
1951.171875; 9.78089E-5
1957.031250; 1.08500E-4
1962.890625; 1.12552E-4
1968.750000; 1.10369E-4
1974.609375; 1.18308E-4
1980.468750; 1.26805E-4
1986.328125; 1.12792E-4
1992.187500; 9.67893E-5
1998.046875; 1.11676E-4
2003.906250; 1.08544E-4
2009.765625; 1.07868E-4
2015.625000; 1.12063E-4
2021.484375; 1.15672E-4
2027.343750; 1.19820E-4
2033.203125; 1.25319E-4
2039.062500; 1.15717E-4
2044.921875; 1.21717E-4
2050.781250; 1.13087E-4
2056.640625; 9.51046E-5
2062.500000; 1.08149E-4
2068.359375; 1.17941E-4
2074.218750; 1.11656E-4
2080.078125; 1.09056E-4
2085.937500; 1.02615E-4
2091.796875; 1.00036E-4
2097.656250; 1.09973E-4
2103.515625; 1.09006E-4
2109.375000; 9.11481E-5
2115.234375; 1.05477E-4
2121.093750; 1.13024E-4
2126.953125; 9.82659E-5
2132.812500; 9.98511E-5
2138.671875; 1.13736E-4
2144.531250; 1.09564E-4
2150.390625; 1.02303E-4
2156.250000; 1.07061E-4
2162.109375; 1.19737E-4
2167.968750; 1.29919E-4
2173.828125; 1.22651E-4
2179.687500; 1.07127E-4
2185.546875; 1.11074E-4
2191.406250; 1.12321E-4
2197.265625; 1.16545E-4
2203.125000; 1.10857E-4
2208.984375; 1.15212E-4
2214.843750; 1.02655E-4
2220.703125; 1.13102E-4
2226.562500; 1.08449E-4
2232.421875; 1.10176E-4
2238.281250; 1.06150E-4
2244.140625; 1.06424E-4
2250.000000; 1.04751E-4
2255.859375; 1.02951E-4
2261.718750; 1.03360E-4
2267.578125; 1.06211E-4
2273.437500; 1.05235E-4
2279.296875; 1.09629E-4
2285.156250; 1.17208E-4
2291.015625; 1.09563E-4
2296.875000; 1.10304E-4
2302.734375; 1.16433E-4
2308.593750; 1.05576E-4
2314.453125; 1.03604E-4
2320.312500; 1.05632E-4
2326.171875; 1.11591E-4
2332.031250; 9.86008E-5
2337.890625; 1.02425E-4
2343.750000; 1.11571E-4
2349.609375; 1.13348E-4
2355.468750; 1.15304E-4
2361.328125; 1.15236E-4
2367.187500; 1.09145E-4
2373.046875; 1.10412E-4
2378.906250; 1.03695E-4
2384.765625; 1.17214E-4
2390.625000; 1.10312E-4
2396.484375; 9.69428E-5
2402.343750; 1.01581E-4
2408.203125; 8.95848E-5
2414.062500; 9.84194E-5
2419.921875; 1.10660E-4
2425.781250; 1.16825E-4
2431.640625; 1.05674E-4
2437.500000; 9.99166E-5
2443.359375; 1.01935E-4
2449.218750; 1.13095E-4
2455.078125; 1.07543E-4
2460.937500; 1.10545E-4
2466.796875; 1.07007E-4
2472.656250; 1.15983E-4
2478.515625; 1.11590E-4
2484.375000; 1.04641E-4
2490.234375; 9.84259E-5
2496.093750; 1.02866E-4
2501.953125; 1.05698E-4
2507.812500; 1.07123E-4
2513.671875; 1.01003E-4
2519.531250; 1.11689E-4
2525.390625; 1.19711E-4
2531.250000; 1.13692E-4
2537.109375; 1.14141E-4
2542.968750; 1.10041E-4
2548.828125; 1.10854E-4
2554.687500; 1.14541E-4
2560.546875; 1.15196E-4
2566.406250; 1.10633E-4
2572.265625; 1.18773E-4
2578.125000; 1.12968E-4
2583.984375; 1.01204E-4
2589.843750; 1.00558E-4
2595.703125; 1.06137E-4
2601.562500; 1.14298E-4
2607.421875; 1.16053E-4
2613.281250; 1.10201E-4
2619.140625; 1.03962E-4
2625.000000; 9.98269E-5
2630.859375; 8.89393E-5
2636.718750; 1.05203E-4
2642.578125; 1.21039E-4
2648.437500; 1.22408E-4
2654.296875; 1.19089E-4
2660.156250; 1.21804E-4
2666.015625; 1.20981E-4
2671.875000; 1.05454E-4
2677.734375; 9.45595E-5
2683.593750; 1.02778E-4
2689.453125; 1.16853E-4
2695.312500; 1.20755E-4
2701.171875; 1.24782E-4
2707.031250; 1.11718E-4
2712.890625; 1.09834E-4
2718.750000; 1.05072E-4
2724.609375; 9.73762E-5
2730.468750; 1.01205E-4
2736.328125; 1.05466E-4
2742.187500; 1.12109E-4
2748.046875; 1.10025E-4
2753.906250; 1.20772E-4
2759.765625; 1.19365E-4
2765.625000; 1.08824E-4
2771.484375; 1.07679E-4
2777.343750; 1.10676E-4
2783.203125; 1.21533E-4
2789.062500; 1.11804E-4
2794.921875; 1.02136E-4
2800.781250; 9.79797E-5
2806.640625; 9.36139E-5
2812.500000; 9.72183E-5
2818.359375; 1.15950E-4
2824.218750; 1.08343E-4
2830.078125; 1.06486E-4
2835.937500; 1.07791E-4
2841.796875; 1.02761E-4
2847.656250; 1.16393E-4
2853.515625; 1.23152E-4
2859.375000; 1.23557E-4
2865.234375; 1.13041E-4
2871.093750; 1.04010E-4
2876.953125; 1.07921E-4
2882.812500; 1.22102E-4
2888.671875; 1.13417E-4
2894.531250; 1.00753E-4
2900.390625; 9.89577E-5
2906.250000; 1.11515E-4
2912.109375; 1.00749E-4
2917.968750; 1.07525E-4
2923.828125; 1.06694E-4
2929.687500; 1.13317E-4
2935.546875; 1.08994E-4
2941.406250; 1.02767E-4
2947.265625; 9.83139E-5
2953.125000; 1.00753E-4
2958.984375; 1.20049E-4
2964.843750; 1.10941E-4
2970.703125; 1.15122E-4
2976.562500; 1.10330E-4
2982.421875; 1.08854E-4
2988.281250; 1.12105E-4
2994.140625; 1.02544E-4
3000.000000; 8.32722E-5
3005.859375; 1.02202E-4
3011.718750; 1.04808E-4
3017.578125; 9.17183E-5
3023.437500; 9.89156E-5
3029.296875; 1.10181E-4
3035.156250; 1.20404E-4
3041.015625; 1.13353E-4
3046.875000; 1.15793E-4
3052.734375; 1.08898E-4
3058.593750; 9.48474E-5
3064.453125; 1.00312E-4
3070.312500; 1.10155E-4
3076.171875; 1.16475E-4
3082.031250; 1.07410E-4
3087.890625; 1.09123E-4
3093.750000; 1.00101E-4
3099.609375; 1.12656E-4
3105.468750; 1.14182E-4
3111.328125; 1.09120E-4
3117.187500; 1.10127E-4
3123.046875; 1.13532E-4
3128.906250; 1.07314E-4
3134.765625; 1.02855E-4
3140.625000; 1.04122E-4
3146.484375; 1.17595E-4
3152.343750; 1.30993E-4
3158.203125; 1.22136E-4
3164.062500; 1.12625E-4
3169.921875; 1.04764E-4
3175.781250; 1.06912E-4
3181.640625; 1.00727E-4
3187.500000; 1.02444E-4
3193.359375; 1.00576E-4
3199.218750; 1.15317E-4
3205.078125; 1.21863E-4
3210.937500; 1.08655E-4
3216.796875; 1.10192E-4
3222.656250; 1.22054E-4
3228.515625; 1.01815E-4
3234.375000; 1.06714E-4
3240.234375; 1.04401E-4
3246.093750; 1.02972E-4
3251.953125; 1.06241E-4
3257.812500; 1.21905E-4
3263.671875; 1.22639E-4
3269.531250; 1.16243E-4
3275.390625; 1.11401E-4
3281.250000; 9.37622E-5
3287.109375; 9.61428E-5
3292.968750; 1.06013E-4
3298.828125; 1.03383E-4
3304.687500; 1.01652E-4
3310.546875; 1.09261E-4
3316.406250; 9.69940E-5
3322.265625; 9.06638E-5
3328.125000; 9.07398E-5
3333.984375; 1.07699E-4
3339.843750; 1.12879E-4
3345.703125; 1.19896E-4
3351.562500; 1.06375E-4
3357.421875; 1.07772E-4
3363.281250; 1.03031E-4
3369.140625; 1.20025E-4
3375.000000; 1.19663E-4
3380.859375; 1.06751E-4
3386.718750; 1.03452E-4
3392.578125; 1.06657E-4
3398.437500; 1.15701E-4
3404.296875; 1.17594E-4
3410.156250; 9.29854E-5
3416.015625; 8.65172E-5
3421.875000; 1.14289E-4
3427.734375; 1.06726E-4
3433.593750; 1.05548E-4
3439.453125; 1.07645E-4
3445.312500; 1.04025E-4
3451.171875; 1.14940E-4
3457.031250; 1.03985E-4
3462.890625; 1.03888E-4
3468.750000; 1.03229E-4
3474.609375; 9.85488E-5
3480.468750; 1.07247E-4
3486.328125; 1.06909E-4
3492.187500; 9.95750E-5
3498.046875; 9.88642E-5
3503.906250; 1.05948E-4
3509.765625; 1.08349E-4
3515.625000; 1.07966E-4
3521.484375; 9.83109E-5
3527.343750; 1.07417E-4
3533.203125; 1.10161E-4
3539.062500; 1.14048E-4
3544.921875; 1.07942E-4
3550.781250; 1.08560E-4
3556.640625; 1.05649E-4
3562.500000; 1.09367E-4
3568.359375; 9.33496E-5
3574.218750; 9.24772E-5
3580.078125; 1.01640E-4
3585.937500; 9.80593E-5
3591.796875; 1.00841E-4
3597.656250; 1.04149E-4
3603.515625; 1.13001E-4
3609.375000; 1.08209E-4
3615.234375; 1.10220E-4
3621.093750; 1.19963E-4
3626.953125; 1.05680E-4
3632.812500; 9.66543E-5
3638.671875; 1.08090E-4
3644.531250; 1.04113E-4
3650.390625; 9.01098E-5
3656.250000; 1.03550E-4
3662.109375; 1.12142E-4
3667.968750; 1.14650E-4
3673.828125; 1.12832E-4
3679.687500; 1.01255E-4
3685.546875; 1.00367E-4
3691.406250; 1.00614E-4
3697.265625; 9.63271E-5
3703.125000; 1.04714E-4
3708.984375; 1.09390E-4
3714.843750; 1.20357E-4
3720.703125; 1.15480E-4
3726.562500; 1.02831E-4
3732.421875; 1.07100E-4
3738.281250; 1.12151E-4
3744.140625; 1.11847E-4
3750.000000; 1.07090E-4
3755.859375; 1.10577E-4
3761.718750; 1.05897E-4
3767.578125; 1.21995E-4
3773.437500; 1.14831E-4
3779.296875; 1.07954E-4
3785.156250; 1.13242E-4
3791.015625; 1.15965E-4
3796.875000; 1.09421E-4
3802.734375; 1.12527E-4
3808.593750; 1.13588E-4
3814.453125; 1.11571E-4
3820.312500; 9.42456E-5
3826.171875; 1.10067E-4
3832.031250; 1.22275E-4
3837.890625; 1.12799E-4
3843.750000; 1.07107E-4
3849.609375; 1.05637E-4
3855.468750; 1.02669E-4
3861.328125; 1.06790E-4
3867.187500; 1.06630E-4
3873.046875; 9.28415E-5
3878.906250; 1.03917E-4
3884.765625; 1.17430E-4
3890.625000; 1.03885E-4
3896.484375; 9.85461E-5
3902.343750; 1.12829E-4
3908.203125; 9.48096E-5
3914.062500; 9.76711E-5
3919.921875; 1.01327E-4
3925.781250; 1.01467E-4
3931.640625; 1.01596E-4
3937.500000; 1.14857E-4
3943.359375; 1.08378E-4
3949.218750; 1.02252E-4
3955.078125; 1.04693E-4
3960.937500; 1.16703E-4
3966.796875; 1.18039E-4
3972.656250; 1.13328E-4
3978.515625; 1.09941E-4
3984.375000; 9.17502E-5
3990.234375; 1.09057E-4
3996.093750; 1.18833E-4
4001.953125; 1.10571E-4
4007.812500; 9.80572E-5
4013.671875; 1.07401E-4
4019.531250; 1.06023E-4
4025.390625; 1.09160E-4
4031.250000; 1.10143E-4
4037.109375; 1.09977E-4
4042.968750; 1.02162E-4
4048.828125; 1.13497E-4
4054.687500; 1.09143E-4
4060.546875; 1.06673E-4
4066.406250; 1.06568E-4
4072.265625; 9.07215E-5
4078.125000; 9.89531E-5
4083.984375; 9.59954E-5
4089.843750; 1.03638E-4
4095.703125; 1.07850E-4
4101.562500; 9.74841E-5
4107.421875; 1.03703E-4
4113.281250; 1.03385E-4
4119.140625; 1.09575E-4
4125.000000; 1.02467E-4
4130.859375; 9.98780E-5
4136.718750; 1.03247E-4
4142.578125; 1.07070E-4
4148.437500; 1.17384E-4
4154.296875; 1.16519E-4
4160.156250; 1.13217E-4
4166.015625; 1.22537E-4
4171.875000; 1.16055E-4
4177.734375; 1.22676E-4
4183.593750; 1.20813E-4
4189.453125; 1.07893E-4
4195.312500; 9.55929E-5
4201.171875; 9.54587E-5
4207.031250; 1.12018E-4
4212.890625; 1.10746E-4
4218.750000; 1.10249E-4
4224.609375; 1.15497E-4
4230.468750; 1.11216E-4
4236.328125; 1.04872E-4
4242.187500; 1.09581E-4
4248.046875; 1.08081E-4
4253.906250; 9.98166E-5
4259.765625; 1.04600E-4
4265.625000; 1.00444E-4
4271.484375; 1.01934E-4
4277.343750; 1.06433E-4
4283.203125; 1.04651E-4
4289.062500; 1.00118E-4
4294.921875; 1.01566E-4
4300.781250; 1.16928E-4
4306.640625; 1.10703E-4
4312.500000; 1.05576E-4
4318.359375; 1.21528E-4
4324.218750; 1.26860E-4
4330.078125; 1.02739E-4
4335.937500; 1.04054E-4
4341.796875; 1.02272E-4
4347.656250; 1.02501E-4
4353.515625; 1.07989E-4
4359.375000; 1.10084E-4
4365.234375; 1.11900E-4
4371.093750; 1.09283E-4
4376.953125; 1.07149E-4
4382.812500; 1.03030E-4
4388.671875; 1.07455E-4
4394.531250; 1.22573E-4
4400.390625; 1.13395E-4
4406.250000; 9.78574E-5
4412.109375; 1.06051E-4
4417.968750; 9.63495E-5
4423.828125; 1.11893E-4
4429.687500; 1.11328E-4
4435.546875; 1.32704E-4
4441.406250; 1.26907E-4
4447.265625; 1.07774E-4
4453.125000; 1.04221E-4
4458.984375; 1.06541E-4
4464.843750; 1.10662E-4
4470.703125; 1.18027E-4
4476.562500; 1.17499E-4
4482.421875; 1.17723E-4
4488.281250; 1.18620E-4
4494.140625; 1.12387E-4
4500.000000; 1.06216E-4
4505.859375; 9.51328E-5
4511.718750; 1.16457E-4
4517.578125; 1.17148E-4
4523.437500; 1.05551E-4
4529.296875; 1.10308E-4
4535.156250; 1.04421E-4
4541.015625; 1.03786E-4
4546.875000; 1.05370E-4
4552.734375; 1.01935E-4
4558.593750; 1.09230E-4
4564.453125; 1.18300E-4
4570.312500; 1.25212E-4
4576.171875; 1.13777E-4
4582.031250; 1.16003E-4
4587.890625; 1.24692E-4
4593.750000; 1.23397E-4
4599.609375; 1.22915E-4
4605.468750; 1.10303E-4
4611.328125; 1.00337E-4
4617.187500; 9.58359E-5
4623.046875; 1.14224E-4
4628.906250; 1.28726E-4
4634.765625; 1.11071E-4
4640.625000; 1.00223E-4
4646.484375; 9.68131E-5
4652.343750; 9.37670E-5
4658.203125; 1.14582E-4
4664.062500; 1.17443E-4
