* Measurement data measured by REW V5.31.3
* Source: PCM: default, no input selected, 2, volume: no control
* Format: 8192-point spectrum using Hann window and exponential averaging 0.97 
* Dated: Mar 9, 2025 12:47:29 PM
* REW Settings:
*  C-weighting compensation: Off
*  Target level: 75.0 dB
* Note: OSDEHA ANODE-OUTPUT; 8192-point spectrum using Hann window and exponential averaging 0.97  Input RMS 3.161 V 3.161 VC, 3.161 VA 3.161 V 22 - 22k UNW 873.8 uV >22k Distortion at 1,000.0 Hz, -30.00 dBFS: Gain: 29.35 dB THD: 0.015 % based on 21 harmonics  [0..22800 Hz] HHD: 0.011 %  [10 .. 22] N: 0.40 %  [0..22800 Hz] N+D: 4.154 mV A THD+N: 0.40 %  [0..22800 Hz] SNR: 48.0 dB ENOB: 13.2 bits 2nd harmonic 0.0037 % -152 deg 3rd harmonic 0.0032 % -150 deg 4th harmonic 0.0033 % -37 deg 5th harmonic 0.0032 % 93 deg 6th harmonic 0.0031 % 5 deg 7th harmonic 0.0032 % 70 deg 8th harmonic 0.0035 % -63 deg 9th harmonic 0.0031 % 50 deg 
* Measurement: OSDEHA A-OUT 3.1V
* Smoothing: None
* Frequency Step: 5.859375 Hz
* Start Frequency: 5.859375 Hz
*
* Freq(Hz); V(V)
5.859375; 7.38984E-4
11.718750; 4.12184E-4
17.578125; 2.23992E-4
23.437500; 1.79691E-4
29.296875; 1.67741E-4
35.156250; 1.63068E-4
41.015625; 1.73974E-4
46.875000; 3.59400E-4
52.734375; 3.66855E-4
58.593750; 1.44733E-4
64.453125; 1.35535E-4
70.312500; 1.33396E-4
76.171875; 1.32196E-4
82.031250; 1.47253E-4
87.890625; 1.73303E-4
93.750000; 5.10116E-3
99.609375; 1.12999E-2
105.468750; 6.25008E-3
111.328125; 1.95894E-4
117.187500; 1.32254E-4
123.046875; 1.22433E-4
128.906250; 1.07828E-4
134.765625; 1.13967E-4
140.625000; 1.37390E-4
146.484375; 1.60758E-4
152.343750; 1.59962E-4
158.203125; 1.24184E-4
164.062500; 1.21464E-4
169.921875; 1.21411E-4
175.781250; 1.22175E-4
181.640625; 1.16937E-4
187.500000; 1.27991E-4
193.359375; 6.70386E-4
199.218750; 1.63756E-3
205.078125; 1.00728E-3
210.937500; 1.21378E-4
216.796875; 1.02704E-4
222.656250; 1.08402E-4
228.515625; 1.15314E-4
234.375000; 1.30396E-4
240.234375; 1.26377E-4
246.093750; 1.50458E-4
251.953125; 1.55349E-4
257.812500; 1.11973E-4
263.671875; 1.13089E-4
269.531250; 1.08870E-4
275.390625; 1.10254E-4
281.250000; 1.16367E-4
287.109375; 1.12641E-4
292.968750; 1.45670E-4
298.828125; 2.78105E-4
304.687500; 2.05844E-4
310.546875; 1.07698E-4
316.406250; 1.08433E-4
322.265625; 1.16349E-4
328.125000; 1.11552E-4
333.984375; 1.06214E-4
339.843750; 1.17461E-4
345.703125; 1.46539E-4
351.562500; 1.65304E-4
357.421875; 1.29765E-4
363.281250; 1.21128E-4
369.140625; 9.74537E-5
375.000000; 1.16043E-4
380.859375; 1.25993E-4
386.718750; 1.16120E-4
392.578125; 1.89926E-4
398.437500; 4.92262E-4
404.296875; 3.64588E-4
410.156250; 1.02493E-4
416.015625; 1.09976E-4
421.875000; 1.06873E-4
427.734375; 1.11915E-4
433.593750; 1.00258E-4
439.453125; 1.04679E-4
445.312500; 1.18730E-4
451.171875; 1.37875E-4
457.031250; 1.20491E-4
462.890625; 1.20597E-4
468.750000; 1.13427E-4
474.609375; 1.12799E-4
480.468750; 1.00538E-4
486.328125; 1.02216E-4
492.187500; 1.41418E-4
498.046875; 3.46254E-4
503.906250; 2.84114E-4
509.765625; 1.32220E-4
515.625000; 1.14187E-4
521.484375; 1.08928E-4
527.343750; 1.04863E-4
533.203125; 1.07461E-4
539.062500; 1.15238E-4
544.921875; 1.13284E-4
550.781250; 1.12167E-4
556.640625; 1.05739E-4
562.500000; 1.04875E-4
568.359375; 9.10876E-5
574.218750; 9.24442E-5
580.078125; 1.08778E-4
585.937500; 1.10685E-4
591.796875; 1.14248E-4
597.656250; 1.25395E-4
603.515625; 1.25735E-4
609.375000; 1.05509E-4
615.234375; 1.02112E-4
621.093750; 1.10938E-4
626.953125; 1.15024E-4
632.812500; 1.04768E-4
638.671875; 1.05840E-4
644.531250; 1.10117E-4
650.390625; 1.09346E-4
656.250000; 9.92269E-5
662.109375; 1.12264E-4
667.968750; 1.13879E-4
673.828125; 1.06403E-4
679.687500; 9.97855E-5
685.546875; 1.06393E-4
691.406250; 1.11899E-4
697.265625; 2.12420E-4
703.125000; 1.98938E-4
708.984375; 1.09826E-4
714.843750; 1.10043E-4
720.703125; 1.01751E-4
726.562500; 1.00058E-4
732.421875; 1.21282E-4
738.281250; 1.23660E-4
744.140625; 1.20999E-4
750.000000; 1.38783E-4
755.859375; 1.09893E-4
761.718750; 1.07712E-4
767.578125; 1.05859E-4
773.437500; 1.05264E-4
779.296875; 1.07255E-4
785.156250; 1.08981E-4
791.015625; 1.14413E-4
796.875000; 1.60812E-4
802.734375; 1.72196E-4
808.593750; 1.12913E-4
814.453125; 1.01290E-4
820.312500; 1.07672E-4
826.171875; 1.10980E-4
832.031250; 1.10324E-4
837.890625; 9.75239E-5
843.750000; 1.17443E-4
849.609375; 1.42513E-4
855.468750; 1.35816E-4
861.328125; 1.24823E-4
867.187500; 1.26017E-4
873.046875; 1.44867E-4
878.906250; 1.46609E-4
884.765625; 1.64392E-4
890.625000; 1.71110E-4
896.484375; 2.06954E-4
902.343750; 2.19287E-4
908.203125; 2.71418E-4
914.062500; 2.88605E-4
919.921875; 3.60757E-4
925.781250; 4.52638E-4
931.640625; 5.60232E-4
937.500000; 7.18748E-4
943.359375; 9.87525E-4
949.218750; 1.36094E-3
955.078125; 1.96954E-3
960.937500; 3.02019E-3
966.796875; 4.93117E-3
972.656250; 9.00117E-3
978.515625; 1.90898E-2
984.375000; 5.34720E-2
990.234375; 2.94104E-1
996.093750; 2.35284E0
1001.953125; 2.94104E0
1007.812500; 8.40277E-1
1013.671875; 8.40627E-2
1019.531250; 2.58369E-2
1025.390625; 1.13071E-2
1031.250000; 5.97071E-3
1037.109375; 3.50284E-3
1042.968750; 2.26612E-3
1048.828125; 1.52215E-3
1054.687500; 1.09954E-3
1060.546875; 8.03510E-4
1066.406250; 6.14432E-4
1072.265625; 4.81522E-4
1078.125000; 3.76486E-4
1083.984375; 3.13692E-4
1089.843750; 2.67665E-4
1095.703125; 2.29423E-4
1101.562500; 2.16372E-4
1107.421875; 1.70231E-4
1113.281250; 1.79543E-4
1119.140625; 1.50384E-4
1125.000000; 1.36996E-4
1130.859375; 1.30431E-4
1136.718750; 1.23805E-4
1142.578125; 1.32227E-4
1148.437500; 1.09954E-4
1154.296875; 1.14753E-4
1160.156250; 1.23791E-4
1166.015625; 1.15043E-4
1171.875000; 1.21074E-4
1177.734375; 1.11311E-4
1183.593750; 1.08946E-4
1189.453125; 1.10927E-4
1195.312500; 1.17458E-4
1201.171875; 1.21201E-4
1207.031250; 1.01453E-4
1212.890625; 1.05269E-4
1218.750000; 1.05727E-4
1224.609375; 1.05330E-4
1230.468750; 1.08241E-4
1236.328125; 1.02688E-4
1242.187500; 1.02041E-4
1248.046875; 1.16636E-4
1253.906250; 1.14448E-4
1259.765625; 1.05723E-4
1265.625000; 1.17975E-4
1271.484375; 1.13691E-4
1277.343750; 1.11111E-4
1283.203125; 1.10881E-4
1289.062500; 1.05041E-4
1294.921875; 1.02243E-4
1300.781250; 1.07221E-4
1306.640625; 1.06255E-4
1312.500000; 1.12397E-4
1318.359375; 1.05050E-4
1324.218750; 9.38243E-5
1330.078125; 9.41464E-5
1335.937500; 1.11693E-4
1341.796875; 1.01596E-4
1347.656250; 9.38091E-5
1353.515625; 1.02183E-4
1359.375000; 1.12922E-4
1365.234375; 1.00844E-4
1371.093750; 1.00072E-4
1376.953125; 1.01529E-4
1382.812500; 1.03647E-4
1388.671875; 9.98575E-5
1394.531250; 1.05897E-4
1400.390625; 1.17252E-4
1406.250000; 9.92890E-5
1412.109375; 1.05622E-4
1417.968750; 1.02689E-4
1423.828125; 1.05196E-4
1429.687500; 1.03441E-4
1435.546875; 1.06109E-4
1441.406250; 1.13121E-4
1447.265625; 1.16002E-4
1453.125000; 1.12304E-4
1458.984375; 1.01724E-4
1464.843750; 1.05318E-4
1470.703125; 1.10553E-4
1476.562500; 1.03749E-4
1482.421875; 1.03182E-4
1488.281250; 1.09920E-4
1494.140625; 1.14609E-4
1500.000000; 1.18238E-4
1505.859375; 1.15045E-4
1511.718750; 1.05124E-4
1517.578125; 9.83525E-5
1523.437500; 1.05538E-4
1529.296875; 1.04271E-4
1535.156250; 1.13138E-4
1541.015625; 1.10903E-4
1546.875000; 1.11709E-4
1552.734375; 9.82914E-5
1558.593750; 9.42709E-5
1564.453125; 1.06857E-4
1570.312500; 1.14816E-4
1576.171875; 1.16746E-4
1582.031250; 1.11688E-4
1587.890625; 1.13009E-4
1593.750000; 1.02895E-4
1599.609375; 1.00763E-4
1605.468750; 9.55651E-5
1611.328125; 1.05635E-4
1617.187500; 1.20185E-4
1623.046875; 1.11688E-4
1628.906250; 1.13518E-4
1634.765625; 1.08110E-4
1640.625000; 1.03740E-4
1646.484375; 1.09636E-4
1652.343750; 1.00990E-4
1658.203125; 1.04452E-4
1664.062500; 1.14496E-4
1669.921875; 1.08532E-4
1675.781250; 1.11204E-4
1681.640625; 1.05688E-4
1687.500000; 9.91247E-5
1693.359375; 9.41588E-5
1699.218750; 1.05459E-4
1705.078125; 1.17883E-4
1710.937500; 1.10543E-4
1716.796875; 1.01264E-4
1722.656250; 9.68789E-5
1728.515625; 1.05381E-4
1734.375000; 1.07324E-4
1740.234375; 1.00575E-4
1746.093750; 9.98959E-5
1751.953125; 1.02597E-4
1757.812500; 1.04726E-4
1763.671875; 1.09828E-4
1769.531250; 1.04332E-4
1775.390625; 1.14862E-4
1781.250000; 1.07277E-4
1787.109375; 9.59562E-5
1792.968750; 1.06532E-4
1798.828125; 1.24974E-4
1804.687500; 1.21453E-4
1810.546875; 1.05180E-4
1816.406250; 1.04478E-4
1822.265625; 1.04946E-4
1828.125000; 1.15596E-4
1833.984375; 1.11874E-4
1839.843750; 1.07831E-4
1845.703125; 1.13959E-4
1851.562500; 1.14213E-4
1857.421875; 1.04732E-4
1863.281250; 1.04213E-4
1869.140625; 1.09606E-4
1875.000000; 1.03166E-4
1880.859375; 1.02219E-4
1886.718750; 1.04154E-4
1892.578125; 1.07076E-4
1898.437500; 1.08039E-4
1904.296875; 1.08561E-4
1910.156250; 1.13031E-4
1916.015625; 1.05814E-4
1921.875000; 1.11561E-4
1927.734375; 1.07709E-4
1933.593750; 1.07302E-4
1939.453125; 1.08720E-4
1945.312500; 1.01309E-4
1951.171875; 1.16620E-4
1957.031250; 1.17765E-4
1962.890625; 1.10777E-4
1968.750000; 1.10112E-4
1974.609375; 1.04014E-4
1980.468750; 9.90754E-5
1986.328125; 1.08350E-4
1992.187500; 1.07124E-4
1998.046875; 1.34823E-4
2003.906250; 1.17397E-4
2009.765625; 1.09606E-4
2015.625000; 1.01270E-4
2021.484375; 9.79981E-5
2027.343750; 1.03267E-4
2033.203125; 1.05683E-4
2039.062500; 1.10396E-4
2044.921875; 1.00168E-4
2050.781250; 1.07334E-4
2056.640625; 1.13194E-4
2062.500000; 9.87273E-5
2068.359375; 9.67584E-5
2074.218750; 9.90782E-5
2080.078125; 1.05896E-4
2085.937500; 1.02783E-4
2091.796875; 1.07677E-4
2097.656250; 1.15378E-4
2103.515625; 1.10147E-4
2109.375000; 1.02168E-4
2115.234375; 1.00231E-4
2121.093750; 9.79913E-5
2126.953125; 1.05047E-4
2132.812500; 1.12002E-4
2138.671875; 1.10243E-4
2144.531250; 1.01208E-4
2150.390625; 9.88509E-5
2156.250000; 1.09639E-4
2162.109375; 1.00474E-4
2167.968750; 1.05042E-4
2173.828125; 1.06455E-4
2179.687500; 1.08703E-4
2185.546875; 1.11822E-4
2191.406250; 1.17544E-4
2197.265625; 1.21968E-4
2203.125000; 1.19803E-4
2208.984375; 1.03292E-4
2214.843750; 9.69190E-5
2220.703125; 9.48785E-5
2226.562500; 1.02789E-4
2232.421875; 9.66944E-5
2238.281250; 9.43697E-5
2244.140625; 9.70712E-5
2250.000000; 1.00126E-4
2255.859375; 9.45443E-5
2261.718750; 1.01091E-4
2267.578125; 1.07130E-4
2273.437500; 1.04409E-4
2279.296875; 1.04751E-4
2285.156250; 1.00655E-4
2291.015625; 9.67468E-5
2296.875000; 9.70638E-5
2302.734375; 9.78441E-5
2308.593750; 9.23960E-5
2314.453125; 1.07182E-4
2320.312500; 1.08932E-4
2326.171875; 1.11950E-4
2332.031250; 1.01225E-4
2337.890625; 9.92401E-5
2343.750000; 9.77425E-5
2349.609375; 1.06421E-4
2355.468750; 1.05156E-4
2361.328125; 9.03739E-5
2367.187500; 9.04484E-5
2373.046875; 1.08268E-4
2378.906250; 1.02462E-4
2384.765625; 9.49019E-5
2390.625000; 1.01018E-4
2396.484375; 9.92109E-5
2402.343750; 1.11065E-4
2408.203125; 1.10626E-4
2414.062500; 1.11013E-4
2419.921875; 1.10784E-4
2425.781250; 1.06091E-4
2431.640625; 1.00762E-4
2437.500000; 9.80868E-5
2443.359375; 1.06282E-4
2449.218750; 1.10435E-4
2455.078125; 1.06212E-4
2460.937500; 9.89858E-5
2466.796875; 9.13166E-5
2472.656250; 8.82520E-5
2478.515625; 8.86867E-5
2484.375000; 9.72204E-5
2490.234375; 1.03472E-4
2496.093750; 1.09056E-4
2501.953125; 1.07528E-4
2507.812500; 9.47249E-5
2513.671875; 1.00419E-4
2519.531250; 1.12348E-4
2525.390625; 1.11015E-4
2531.250000; 1.00068E-4
2537.109375; 1.05518E-4
2542.968750; 1.08942E-4
2548.828125; 1.10236E-4
2554.687500; 1.17807E-4
2560.546875; 1.17858E-4
2566.406250; 1.04981E-4
2572.265625; 1.02342E-4
2578.125000; 9.53037E-5
2583.984375; 1.05912E-4
2589.843750; 1.09003E-4
2595.703125; 1.04784E-4
2601.562500; 1.01715E-4
2607.421875; 1.03732E-4
2613.281250; 1.19579E-4
2619.140625; 1.15448E-4
2625.000000; 9.96158E-5
2630.859375; 9.98326E-5
2636.718750; 1.08346E-4
2642.578125; 1.06717E-4
2648.437500; 1.07155E-4
2654.296875; 1.07896E-4
2660.156250; 1.18578E-4
2666.015625; 1.10362E-4
2671.875000; 1.10674E-4
2677.734375; 1.05255E-4
2683.593750; 1.06838E-4
2689.453125; 1.14137E-4
2695.312500; 1.04534E-4
2701.171875; 9.38081E-5
2707.031250; 9.77413E-5
2712.890625; 1.02851E-4
2718.750000; 1.11651E-4
2724.609375; 1.09315E-4
2730.468750; 1.09983E-4
2736.328125; 1.05775E-4
2742.187500; 9.63314E-5
2748.046875; 1.02924E-4
2753.906250; 1.13298E-4
2759.765625; 1.10342E-4
2765.625000; 1.00276E-4
2771.484375; 1.08097E-4
2777.343750; 1.07342E-4
2783.203125; 1.03849E-4
2789.062500; 1.00029E-4
2794.921875; 1.09069E-4
2800.781250; 1.06662E-4
2806.640625; 1.02275E-4
2812.500000; 1.07156E-4
2818.359375; 1.05810E-4
2824.218750; 9.89220E-5
2830.078125; 1.05972E-4
2835.937500; 1.03172E-4
2841.796875; 1.05572E-4
2847.656250; 1.03228E-4
2853.515625; 1.06707E-4
2859.375000; 1.09163E-4
2865.234375; 1.05768E-4
2871.093750; 1.04518E-4
2876.953125; 1.07538E-4
2882.812500; 1.03873E-4
2888.671875; 1.02998E-4
2894.531250; 1.03981E-4
2900.390625; 1.10252E-4
2906.250000; 1.01223E-4
2912.109375; 1.02305E-4
2917.968750; 1.08783E-4
2923.828125; 9.61980E-5
2929.687500; 1.06235E-4
2935.546875; 1.07466E-4
2941.406250; 1.09780E-4
2947.265625; 1.18763E-4
2953.125000; 1.14291E-4
2958.984375; 1.09472E-4
2964.843750; 1.02504E-4
2970.703125; 1.00727E-4
2976.562500; 1.16567E-4
2982.421875; 1.11313E-4
2988.281250; 1.02527E-4
2994.140625; 9.82385E-5
3000.000000; 8.77980E-5
3005.859375; 9.98260E-5
3011.718750; 1.04073E-4
3017.578125; 1.03595E-4
3023.437500; 9.97368E-5
3029.296875; 1.02858E-4
3035.156250; 1.07977E-4
3041.015625; 1.14802E-4
3046.875000; 1.15725E-4
3052.734375; 1.20601E-4
3058.593750; 1.20785E-4
3064.453125; 1.08247E-4
3070.312500; 1.04947E-4
3076.171875; 1.11999E-4
3082.031250; 1.08303E-4
3087.890625; 1.00579E-4
3093.750000; 9.50281E-5
3099.609375; 9.41665E-5
3105.468750; 1.04845E-4
3111.328125; 1.07516E-4
3117.187500; 1.12801E-4
3123.046875; 1.12387E-4
3128.906250; 1.05949E-4
3134.765625; 1.06910E-4
3140.625000; 1.02808E-4
3146.484375; 1.04027E-4
3152.343750; 1.05702E-4
3158.203125; 1.01150E-4
3164.062500; 9.64065E-5
3169.921875; 1.04662E-4
3175.781250; 1.06342E-4
3181.640625; 1.04340E-4
3187.500000; 1.01833E-4
3193.359375; 1.07204E-4
3199.218750; 1.13213E-4
3205.078125; 1.13520E-4
3210.937500; 1.02354E-4
3216.796875; 1.03099E-4
3222.656250; 9.91416E-5
3228.515625; 1.02386E-4
3234.375000; 1.00587E-4
3240.234375; 1.02941E-4
3246.093750; 9.86109E-5
3251.953125; 9.91929E-5
3257.812500; 9.97005E-5
3263.671875; 1.05113E-4
3269.531250; 1.16313E-4
3275.390625; 1.15904E-4
3281.250000; 9.52581E-5
3287.109375; 1.04107E-4
3292.968750; 1.09270E-4
3298.828125; 1.15644E-4
3304.687500; 1.12101E-4
3310.546875; 9.77844E-5
3316.406250; 8.72425E-5
3322.265625; 1.00919E-4
3328.125000; 1.05804E-4
3333.984375; 1.11335E-4
3339.843750; 1.10342E-4
3345.703125; 1.01613E-4
3351.562500; 1.06042E-4
3357.421875; 1.12856E-4
3363.281250; 1.16087E-4
3369.140625; 1.13864E-4
3375.000000; 1.07434E-4
3380.859375; 1.07994E-4
3386.718750; 1.02965E-4
3392.578125; 1.14118E-4
3398.437500; 1.11387E-4
3404.296875; 1.12830E-4
3410.156250; 1.05088E-4
3416.015625; 1.00632E-4
3421.875000; 1.00869E-4
3427.734375; 9.88236E-5
3433.593750; 9.96733E-5
3439.453125; 1.01623E-4
3445.312500; 1.06120E-4
3451.171875; 1.12901E-4
3457.031250; 1.11199E-4
3462.890625; 1.03692E-4
3468.750000; 1.01662E-4
3474.609375; 1.13340E-4
3480.468750; 1.08331E-4
3486.328125; 9.98276E-5
3492.187500; 1.05621E-4
3498.046875; 1.12917E-4
3503.906250; 1.07987E-4
3509.765625; 1.05087E-4
3515.625000; 1.00136E-4
3521.484375; 1.02830E-4
3527.343750; 1.05276E-4
3533.203125; 9.71659E-5
3539.062500; 1.00950E-4
3544.921875; 1.01021E-4
3550.781250; 1.02183E-4
3556.640625; 9.97480E-5
3562.500000; 9.72448E-5
3568.359375; 1.00404E-4
3574.218750; 9.28038E-5
3580.078125; 9.20021E-5
3585.937500; 1.06398E-4
3591.796875; 1.07018E-4
3597.656250; 9.75450E-5
3603.515625; 9.55207E-5
3609.375000; 1.00914E-4
3615.234375; 1.05596E-4
3621.093750; 1.06705E-4
3626.953125; 1.08705E-4
3632.812500; 1.10581E-4
3638.671875; 1.07657E-4
3644.531250; 1.01065E-4
3650.390625; 1.11444E-4
3656.250000; 1.16570E-4
3662.109375; 1.06702E-4
3667.968750; 1.00059E-4
3673.828125; 1.07797E-4
3679.687500; 1.02684E-4
3685.546875; 9.54076E-5
3691.406250; 1.01108E-4
3697.265625; 1.09896E-4
3703.125000; 1.07635E-4
3708.984375; 1.06175E-4
3714.843750; 9.97092E-5
3720.703125; 9.76627E-5
3726.562500; 1.01552E-4
3732.421875; 1.09363E-4
3738.281250; 1.01196E-4
3744.140625; 9.81382E-5
3750.000000; 1.06885E-4
3755.859375; 1.04014E-4
3761.718750; 9.78547E-5
3767.578125; 1.02372E-4
3773.437500; 1.06352E-4
3779.296875; 1.00033E-4
3785.156250; 9.91997E-5
3791.015625; 1.03824E-4
3796.875000; 1.06914E-4
3802.734375; 9.61248E-5
3808.593750; 1.01539E-4
3814.453125; 1.00262E-4
3820.312500; 9.34468E-5
3826.171875; 1.09402E-4
3832.031250; 1.04988E-4
3837.890625; 1.04527E-4
3843.750000; 1.00495E-4
3849.609375; 1.07754E-4
3855.468750; 1.00435E-4
3861.328125; 9.79201E-5
3867.187500; 1.06177E-4
3873.046875; 1.11409E-4
3878.906250; 1.05058E-4
3884.765625; 9.21507E-5
3890.625000; 8.66483E-5
3896.484375; 9.99456E-5
3902.343750; 1.08693E-4
3908.203125; 1.10727E-4
3914.062500; 1.12475E-4
3919.921875; 1.05104E-4
3925.781250; 9.30397E-5
3931.640625; 9.96331E-5
3937.500000; 1.08250E-4
3943.359375; 1.00758E-4
3949.218750; 1.00670E-4
3955.078125; 1.08768E-4
3960.937500; 1.10968E-4
3966.796875; 1.04912E-4
3972.656250; 9.39430E-5
3978.515625; 9.46534E-5
3984.375000; 9.06627E-5
3990.234375; 9.51876E-5
3996.093750; 9.79701E-5
4001.953125; 9.16258E-5
4007.812500; 9.41095E-5
4013.671875; 1.14676E-4
4019.531250; 1.12592E-4
4025.390625; 1.09709E-4
4031.250000; 1.16435E-4
4037.109375; 1.19546E-4
4042.968750; 1.11153E-4
4048.828125; 1.03325E-4
4054.687500; 1.04490E-4
4060.546875; 1.12636E-4
4066.406250; 1.05036E-4
4072.265625; 1.07535E-4
4078.125000; 1.03915E-4
4083.984375; 1.06254E-4
4089.843750; 9.89807E-5
4095.703125; 1.04614E-4
4101.562500; 1.05109E-4
4107.421875; 9.71303E-5
4113.281250; 9.78014E-5
4119.140625; 9.86400E-5
4125.000000; 1.01021E-4
4130.859375; 1.08156E-4
4136.718750; 1.00313E-4
4142.578125; 1.04106E-4
4148.437500; 1.07880E-4
4154.296875; 1.07024E-4
4160.156250; 1.07140E-4
4166.015625; 1.05609E-4
4171.875000; 1.01373E-4
4177.734375; 9.83507E-5
4183.593750; 9.99603E-5
4189.453125; 1.03991E-4
4195.312500; 9.75044E-5
4201.171875; 9.96593E-5
4207.031250; 9.44369E-5
4212.890625; 1.10797E-4
4218.750000; 1.08536E-4
4224.609375; 9.42926E-5
4230.468750; 1.04467E-4
4236.328125; 9.86404E-5
4242.187500; 9.00934E-5
4248.046875; 1.08892E-4
4253.906250; 1.08320E-4
4259.765625; 1.06247E-4
4265.625000; 1.09926E-4
4271.484375; 1.14078E-4
4277.343750; 1.11292E-4
4283.203125; 1.06343E-4
4289.062500; 1.02440E-4
4294.921875; 1.18286E-4
4300.781250; 1.20569E-4
4306.640625; 1.08620E-4
4312.500000; 1.06369E-4
4318.359375; 1.03868E-4
4324.218750; 1.10180E-4
4330.078125; 1.04966E-4
4335.937500; 9.94907E-5
4341.796875; 9.57080E-5
4347.656250; 9.94429E-5
4353.515625; 1.11046E-4
4359.375000; 1.17722E-4
4365.234375; 1.09568E-4
4371.093750; 9.64113E-5
4376.953125; 1.04130E-4
4382.812500; 1.10212E-4
4388.671875; 1.11306E-4
4394.531250; 1.04538E-4
4400.390625; 1.06412E-4
4406.250000; 1.00052E-4
4412.109375; 1.02603E-4
4417.968750; 1.01790E-4
4423.828125; 1.13276E-4
4429.687500; 1.11301E-4
4435.546875; 9.78398E-5
4441.406250; 9.43329E-5
4447.265625; 1.07236E-4
4453.125000; 1.16670E-4
4458.984375; 1.08279E-4
4464.843750; 9.94276E-5
4470.703125; 9.20101E-5
4476.562500; 9.20485E-5
4482.421875; 9.75990E-5
4488.281250; 9.60885E-5
4494.140625; 9.88415E-5
4500.000000; 1.09167E-4
4505.859375; 1.09493E-4
4511.718750; 1.03340E-4
4517.578125; 1.04255E-4
4523.437500; 9.68982E-5
4529.296875; 1.00608E-4
4535.156250; 9.89826E-5
4541.015625; 9.92461E-5
4546.875000; 1.12834E-4
4552.734375; 1.17085E-4
4558.593750; 1.01836E-4
4564.453125; 9.53392E-5
4570.312500; 9.83142E-5
4576.171875; 1.15368E-4
4582.031250; 1.19570E-4
4587.890625; 1.06970E-4
4593.750000; 1.08323E-4
4599.609375; 1.08206E-4
4605.468750; 1.01943E-4
4611.328125; 9.67899E-5
4617.187500; 9.84322E-5
4623.046875; 1.07544E-4
4628.906250; 9.98922E-5
4634.765625; 9.94556E-5
4640.625000; 9.41596E-5
4646.484375; 9.06427E-5
4652.343750; 9.91366E-5
4658.203125; 9.97988E-5
4664.062500; 1.10813E-4
