* Measurement data measured by REW V5.31.3
* Source: PCM: default, no input selected, 2, volume: no control
* Format: 8192-point spectrum using Hann window and exponential averaging 0.97 
* Dated: Mar 9, 2025 1:26:06 PM
* REW Settings:
*  C-weighting compensation: Off
*  Target level: 75.0 dB
* Note: OSDEHA MU-OUTPUT; 8192-point spectrum using Hann window and exponential averaging 0.97  Input RMS 56.23 V 56.23 VC, 56.23 VA 56.23 V 22 - 22k UNW 953.5 uV >22k Distortion at 1,000.0 Hz, -5.00 dBFS: Gain: 29.67 dB THD: 0.025 % based on 21 harmonics  [0..22800 Hz] HHD: 0.00070 %  [10 .. 22] N: 0.025 %  [0..22800 Hz] N+D: 16.46 mV A THD+N: 0.035 %  [0..22800 Hz] SNR: 72.0 dB ENOB: 12.5 bits 2nd harmonic 0.023 % 162 deg 3rd harmonic 0.0075 % -83 deg 4th harmonic 0.0043 % 120 deg 5th harmonic 0.0020 % -52 deg 6th harmonic 0.00079 % 134 deg 7th harmonic 0.00046 % -31 deg 8th harmonic 0.00023 % 147 deg 9th harmonic 0.00023 % -8 deg 
* Measurement: OSDEHA MU-OUT 56.2V
* Smoothing: None
* Frequency Step: 5.859375 Hz
* Start Frequency: 5.859375 Hz
*
* Freq(Hz); V(V)
5.859375; 1.58171E-4
11.718750; 2.25273E-4
17.578125; 2.25606E-4
23.437500; 1.66582E-4
29.296875; 1.57672E-4
35.156250; 1.67125E-4
41.015625; 1.73466E-4
46.875000; 3.37323E-4
52.734375; 3.46217E-4
58.593750; 1.62050E-4
64.453125; 1.29008E-4
70.312500; 1.31984E-4
76.171875; 1.34435E-4
82.031250; 1.44381E-4
87.890625; 2.19564E-4
93.750000; 5.75112E-3
99.609375; 1.29174E-2
105.468750; 7.21672E-3
111.328125; 2.41674E-4
117.187500; 1.43206E-4
123.046875; 1.41474E-4
128.906250; 1.57759E-4
134.765625; 1.59999E-4
140.625000; 1.60733E-4
146.484375; 1.63742E-4
152.343750; 1.48901E-4
158.203125; 1.33730E-4
164.062500; 1.40535E-4
169.921875; 1.57399E-4
175.781250; 1.58803E-4
181.640625; 1.54686E-4
187.500000; 1.50049E-4
193.359375; 5.41765E-4
199.218750; 1.36562E-3
205.078125; 8.68026E-4
210.937500; 1.36422E-4
216.796875; 1.30662E-4
222.656250; 1.43960E-4
228.515625; 1.28182E-4
234.375000; 1.30834E-4
240.234375; 1.43061E-4
246.093750; 1.29023E-4
251.953125; 1.32264E-4
257.812500; 1.28126E-4
263.671875; 1.40928E-4
269.531250; 1.28867E-4
275.390625; 1.20902E-4
281.250000; 1.27789E-4
287.109375; 1.21529E-4
292.968750; 1.73030E-4
298.828125; 3.24151E-4
304.687500; 2.36231E-4
310.546875; 1.19942E-4
316.406250; 1.19776E-4
322.265625; 1.20823E-4
328.125000; 1.11828E-4
333.984375; 1.19970E-4
339.843750; 1.28398E-4
345.703125; 1.42581E-4
351.562500; 1.32044E-4
357.421875; 1.00150E-4
363.281250; 1.17864E-4
369.140625; 1.37292E-4
375.000000; 1.46292E-4
380.859375; 1.39105E-4
386.718750; 1.26577E-4
392.578125; 1.45271E-4
398.437500; 2.78785E-4
404.296875; 2.09585E-4
410.156250; 1.21577E-4
416.015625; 1.28249E-4
421.875000; 1.18646E-4
427.734375; 1.14351E-4
433.593750; 1.21256E-4
439.453125; 1.37869E-4
445.312500; 1.14963E-4
451.171875; 1.29274E-4
457.031250; 1.21610E-4
462.890625; 1.39078E-4
468.750000; 1.37063E-4
474.609375; 1.32496E-4
480.468750; 1.42177E-4
486.328125; 1.18013E-4
492.187500; 1.36817E-4
498.046875; 1.31517E-4
503.906250; 1.26950E-4
509.765625; 1.30060E-4
515.625000; 1.38361E-4
521.484375; 1.16746E-4
527.343750; 1.16838E-4
533.203125; 1.15853E-4
539.062500; 1.34948E-4
544.921875; 1.28507E-4
550.781250; 1.28414E-4
556.640625; 1.32517E-4
562.500000; 1.22158E-4
568.359375; 1.27059E-4
574.218750; 1.33528E-4
580.078125; 1.29682E-4
585.937500; 1.18223E-4
591.796875; 1.21591E-4
597.656250; 1.49997E-4
603.515625; 1.44972E-4
609.375000; 1.34859E-4
615.234375; 1.32278E-4
621.093750; 1.26493E-4
626.953125; 1.38105E-4
632.812500; 1.36194E-4
638.671875; 1.41721E-4
644.531250; 1.56003E-4
650.390625; 1.47163E-4
656.250000; 1.39100E-4
662.109375; 1.46917E-4
667.968750; 1.39106E-4
673.828125; 1.56819E-4
679.687500; 1.46673E-4
685.546875; 1.61675E-4
691.406250; 1.52725E-4
697.265625; 1.54068E-4
703.125000; 1.79168E-4
708.984375; 1.73350E-4
714.843750; 1.73915E-4
720.703125; 1.86455E-4
726.562500; 1.82669E-4
732.421875; 2.10956E-4
738.281250; 2.18393E-4
744.140625; 2.12009E-4
750.000000; 2.13583E-4
755.859375; 2.65912E-4
761.718750; 2.30115E-4
767.578125; 2.80162E-4
773.437500; 2.92010E-4
779.296875; 3.12759E-4
785.156250; 3.14952E-4
791.015625; 3.70654E-4
796.875000; 3.84760E-4
802.734375; 4.48574E-4
808.593750; 4.31771E-4
814.453125; 5.33828E-4
820.312500; 5.19685E-4
826.171875; 6.34236E-4
832.031250; 6.40846E-4
837.890625; 7.57843E-4
843.750000; 8.32499E-4
849.609375; 8.98736E-4
855.468750; 1.07830E-3
861.328125; 1.14887E-3
867.187500; 1.34573E-3
873.046875; 1.53068E-3
878.906250; 1.75787E-3
884.765625; 2.04733E-3
890.625000; 2.41166E-3
896.484375; 2.80817E-3
902.343750; 3.35883E-3
908.203125; 4.05506E-3
914.062500; 4.93267E-3
919.921875; 6.12524E-3
925.781250; 7.65846E-3
931.640625; 9.83808E-3
937.500000; 1.28870E-2
943.359375; 1.73473E-2
949.218750; 2.41429E-2
955.078125; 3.49848E-2
960.937500; 5.35257E-2
966.796875; 8.79382E-2
972.656250; 1.59862E-1
978.515625; 3.39727E-1
984.375000; 9.51245E-1
990.234375; 5.23185E0
996.093750; 4.18547E1
1001.953125; 5.23183E1
1007.812500; 1.49481E1
1013.671875; 1.49480E0
1019.531250; 4.59929E-1
1025.390625; 2.01238E-1
1031.250000; 1.05900E-1
1037.109375; 6.25911E-2
1042.968750; 4.00483E-2
1048.828125; 2.71673E-2
1054.687500; 1.93097E-2
1060.546875; 1.41661E-2
1066.406250; 1.07433E-2
1072.265625; 8.31472E-3
1078.125000; 6.57745E-3
1083.984375; 5.28791E-3
1089.843750; 4.32190E-3
1095.703125; 3.58694E-3
1101.562500; 2.96576E-3
1107.421875; 2.54262E-3
1113.281250; 2.14852E-3
1119.140625; 1.84845E-3
1125.000000; 1.60607E-3
1130.859375; 1.41295E-3
1136.718750; 1.20234E-3
1142.578125; 1.10216E-3
1148.437500; 9.57995E-4
1154.296875; 8.69975E-4
1160.156250; 7.55977E-4
1166.015625; 6.96041E-4
1171.875000; 6.20025E-4
1177.734375; 5.61000E-4
1183.593750; 5.29549E-4
1189.453125; 4.55569E-4
1195.312500; 4.44499E-4
1201.171875; 4.00804E-4
1207.031250; 3.82948E-4
1212.890625; 3.24984E-4
1218.750000; 3.29992E-4
1224.609375; 2.99674E-4
1230.468750; 2.79047E-4
1236.328125; 2.64565E-4
1242.187500; 2.43554E-4
1248.046875; 2.40479E-4
1253.906250; 2.18520E-4
1259.765625; 2.12151E-4
1265.625000; 2.15677E-4
1271.484375; 1.85524E-4
1277.343750; 1.75342E-4
1283.203125; 1.89950E-4
1289.062500; 1.80225E-4
1294.921875; 1.52998E-4
1300.781250; 1.75762E-4
1306.640625; 1.52255E-4
1312.500000; 1.52371E-4
1318.359375; 1.39360E-4
1324.218750; 1.42407E-4
1330.078125; 1.49971E-4
1335.937500; 1.36254E-4
1341.796875; 1.30885E-4
1347.656250; 1.39859E-4
1353.515625; 1.43537E-4
1359.375000; 1.32205E-4
1365.234375; 1.39927E-4
1371.093750; 1.18262E-4
1376.953125; 1.17358E-4
1382.812500; 1.29167E-4
1388.671875; 1.18300E-4
1394.531250; 1.20069E-4
1400.390625; 1.16406E-4
1406.250000; 1.21668E-4
1412.109375; 1.26393E-4
1417.968750; 1.22409E-4
1423.828125; 1.34255E-4
1429.687500; 1.32508E-4
1435.546875; 1.26030E-4
1441.406250; 1.27786E-4
1447.265625; 1.27819E-4
1453.125000; 1.20748E-4
1458.984375; 1.14696E-4
1464.843750; 1.31262E-4
1470.703125; 1.21856E-4
1476.562500; 1.13605E-4
1482.421875; 1.25442E-4
1488.281250; 1.25666E-4
1494.140625; 1.05032E-4
1500.000000; 1.10500E-4
1505.859375; 1.19493E-4
1511.718750; 1.21515E-4
1517.578125; 1.08207E-4
1523.437500; 1.18641E-4
1529.296875; 1.01356E-4
1535.156250; 1.06343E-4
1541.015625; 1.18777E-4
1546.875000; 1.22469E-4
1552.734375; 1.20771E-4
1558.593750; 1.08830E-4
1564.453125; 1.13194E-4
1570.312500; 1.18474E-4
1576.171875; 1.12987E-4
1582.031250; 1.19694E-4
1587.890625; 1.24005E-4
1593.750000; 1.10358E-4
1599.609375; 1.18425E-4
1605.468750; 1.09806E-4
1611.328125; 1.16096E-4
1617.187500; 1.07783E-4
1623.046875; 1.11418E-4
1628.906250; 1.17251E-4
1634.765625; 1.23773E-4
1640.625000; 1.24578E-4
1646.484375; 1.19536E-4
1652.343750; 1.17642E-4
1658.203125; 1.19926E-4
1664.062500; 1.20550E-4
1669.921875; 1.21187E-4
1675.781250; 1.01514E-4
1681.640625; 1.00168E-4
1687.500000; 9.63904E-5
1693.359375; 1.04456E-4
1699.218750; 1.05514E-4
1705.078125; 1.18676E-4
1710.937500; 1.33123E-4
1716.796875; 1.21260E-4
1722.656250; 1.19037E-4
1728.515625; 1.11438E-4
1734.375000; 1.08896E-4
1740.234375; 1.17600E-4
1746.093750; 1.13581E-4
1751.953125; 1.06953E-4
1757.812500; 1.08933E-4
1763.671875; 1.04149E-4
1769.531250; 9.94929E-5
1775.390625; 1.04805E-4
1781.250000; 1.08398E-4
1787.109375; 1.04665E-4
1792.968750; 1.04968E-4
1798.828125; 1.09933E-4
1804.687500; 1.07375E-4
1810.546875; 1.04379E-4
1816.406250; 1.04399E-4
1822.265625; 1.02506E-4
1828.125000; 9.70306E-5
1833.984375; 1.17858E-4
1839.843750; 1.10050E-4
1845.703125; 1.08684E-4
1851.562500; 1.05994E-4
1857.421875; 1.05914E-4
1863.281250; 1.02337E-4
1869.140625; 1.10354E-4
1875.000000; 1.13716E-4
1880.859375; 1.00668E-4
1886.718750; 1.07220E-4
1892.578125; 1.07489E-4
1898.437500; 1.07635E-4
1904.296875; 1.00553E-4
1910.156250; 9.85323E-5
1916.015625; 1.03163E-4
1921.875000; 1.08063E-4
1927.734375; 1.15594E-4
1933.593750; 1.14084E-4
1939.453125; 1.10209E-4
1945.312500; 1.21764E-4
1951.171875; 1.14577E-4
1957.031250; 1.06528E-4
1962.890625; 1.24853E-4
1968.750000; 1.16269E-4
1974.609375; 1.06518E-4
1980.468750; 1.55025E-4
1986.328125; 3.59979E-4
1992.187500; 3.42483E-3
1998.046875; 1.19902E-2
2003.906250; 9.58505E-3
2009.765625; 1.19112E-3
2015.625000; 2.41315E-4
2021.484375; 1.40793E-4
2027.343750; 1.27743E-4
2033.203125; 1.30112E-4
2039.062500; 1.17171E-4
2044.921875; 1.14701E-4
2050.781250; 1.21227E-4
2056.640625; 1.14177E-4
2062.500000; 1.09941E-4
2068.359375; 1.11766E-4
2074.218750; 1.12120E-4
2080.078125; 1.07477E-4
2085.937500; 1.09235E-4
2091.796875; 1.05070E-4
2097.656250; 1.04157E-4
2103.515625; 1.06142E-4
2109.375000; 1.12889E-4
2115.234375; 1.07034E-4
2121.093750; 1.05937E-4
2126.953125; 9.21160E-5
2132.812500; 1.06760E-4
2138.671875; 1.07891E-4
2144.531250; 9.39683E-5
2150.390625; 9.48138E-5
2156.250000; 1.09989E-4
2162.109375; 1.22631E-4
2167.968750; 1.03790E-4
2173.828125; 9.77706E-5
2179.687500; 1.03565E-4
2185.546875; 1.14427E-4
2191.406250; 1.12489E-4
2197.265625; 9.93490E-5
2203.125000; 9.78021E-5
2208.984375; 9.99198E-5
2214.843750; 1.03009E-4
2220.703125; 1.10098E-4
2226.562500; 1.22317E-4
2232.421875; 1.20061E-4
2238.281250; 1.16083E-4
2244.140625; 1.04758E-4
2250.000000; 1.01194E-4
2255.859375; 1.12137E-4
2261.718750; 1.14485E-4
2267.578125; 1.14165E-4
2273.437500; 1.23296E-4
2279.296875; 1.11245E-4
2285.156250; 1.03578E-4
2291.015625; 1.01612E-4
2296.875000; 1.01549E-4
2302.734375; 9.52301E-5
2308.593750; 9.81146E-5
2314.453125; 1.02436E-4
2320.312500; 1.10117E-4
2326.171875; 9.95076E-5
2332.031250; 1.03434E-4
2337.890625; 1.16315E-4
2343.750000; 1.16710E-4
2349.609375; 1.03118E-4
2355.468750; 1.21590E-4
2361.328125; 1.17272E-4
2367.187500; 1.03172E-4
2373.046875; 1.05361E-4
2378.906250; 9.46355E-5
2384.765625; 1.07961E-4
2390.625000; 1.05577E-4
2396.484375; 1.03628E-4
2402.343750; 1.07054E-4
2408.203125; 1.04574E-4
2414.062500; 9.68364E-5
2419.921875; 1.03652E-4
2425.781250; 1.16514E-4
2431.640625; 1.09546E-4
2437.500000; 1.08234E-4
2443.359375; 1.04237E-4
2449.218750; 1.01331E-4
2455.078125; 1.12192E-4
2460.937500; 1.14024E-4
2466.796875; 9.94182E-5
2472.656250; 1.04476E-4
2478.515625; 1.08346E-4
2484.375000; 1.05250E-4
2490.234375; 1.15681E-4
2496.093750; 1.14140E-4
2501.953125; 1.01380E-4
2507.812500; 9.49495E-5
2513.671875; 1.12454E-4
2519.531250; 1.27161E-4
2525.390625; 1.23859E-4
2531.250000; 1.08966E-4
2537.109375; 1.01765E-4
2542.968750; 1.01685E-4
2548.828125; 1.02192E-4
2554.687500; 1.00505E-4
2560.546875; 9.76070E-5
2566.406250; 1.14134E-4
2572.265625; 1.11478E-4
2578.125000; 1.10963E-4
2583.984375; 1.09462E-4
2589.843750; 1.09623E-4
2595.703125; 1.04887E-4
2601.562500; 1.17651E-4
2607.421875; 1.18225E-4
2613.281250; 1.04366E-4
2619.140625; 1.22414E-4
2625.000000; 1.19992E-4
2630.859375; 1.16101E-4
2636.718750; 9.92197E-5
2642.578125; 1.05170E-4
2648.437500; 1.02609E-4
2654.296875; 1.12689E-4
2660.156250; 1.03284E-4
2666.015625; 9.85280E-5
2671.875000; 1.06233E-4
2677.734375; 1.05078E-4
2683.593750; 1.14068E-4
2689.453125; 1.24453E-4
2695.312500; 1.20991E-4
2701.171875; 1.15510E-4
2707.031250; 1.06023E-4
2712.890625; 1.14009E-4
2718.750000; 1.17012E-4
2724.609375; 1.10682E-4
2730.468750; 1.16230E-4
2736.328125; 1.05735E-4
2742.187500; 1.02974E-4
2748.046875; 1.12761E-4
2753.906250; 1.22040E-4
2759.765625; 1.21805E-4
2765.625000; 1.16693E-4
2771.484375; 1.16128E-4
2777.343750; 1.11767E-4
2783.203125; 1.18844E-4
2789.062500; 1.15364E-4
2794.921875; 1.04029E-4
2800.781250; 1.18006E-4
2806.640625; 1.25140E-4
2812.500000; 1.17732E-4
2818.359375; 1.13670E-4
2824.218750; 1.05117E-4
2830.078125; 1.07411E-4
2835.937500; 1.05420E-4
2841.796875; 9.93108E-5
2847.656250; 1.07877E-4
2853.515625; 1.01171E-4
2859.375000; 1.09469E-4
2865.234375; 1.11517E-4
2871.093750; 1.03122E-4
2876.953125; 1.12423E-4
2882.812500; 1.12912E-4
2888.671875; 1.08253E-4
2894.531250; 1.14359E-4
2900.390625; 1.18049E-4
2906.250000; 1.23862E-4
2912.109375; 1.21058E-4
2917.968750; 1.17908E-4
2923.828125; 1.18340E-4
2929.687500; 1.09531E-4
2935.546875; 1.10105E-4
2941.406250; 1.02136E-4
2947.265625; 1.11119E-4
2953.125000; 1.12869E-4
2958.984375; 1.12457E-4
2964.843750; 1.10441E-4
2970.703125; 1.08178E-4
2976.562500; 1.11806E-4
2982.421875; 1.15632E-4
2988.281250; 1.27522E-4
2994.140625; 2.11018E-3
3000.000000; 4.21290E-3
3005.859375; 2.09963E-3
3011.718750; 1.10108E-4
3017.578125; 1.00728E-4
3023.437500; 1.05642E-4
3029.296875; 1.21782E-4
3035.156250; 1.15664E-4
3041.015625; 1.10388E-4
3046.875000; 9.64985E-5
3052.734375; 1.04895E-4
3058.593750; 1.10325E-4
3064.453125; 1.03926E-4
3070.312500; 1.07865E-4
3076.171875; 1.11609E-4
3082.031250; 1.09643E-4
3087.890625; 1.16546E-4
3093.750000; 1.10333E-4
3099.609375; 1.02999E-4
3105.468750; 1.13874E-4
3111.328125; 1.08664E-4
3117.187500; 9.93392E-5
3123.046875; 9.63781E-5
3128.906250; 8.86124E-5
3134.765625; 1.12111E-4
3140.625000; 1.15512E-4
3146.484375; 1.23440E-4
3152.343750; 1.06418E-4
3158.203125; 1.16099E-4
3164.062500; 1.05160E-4
3169.921875; 1.05579E-4
3175.781250; 1.19312E-4
3181.640625; 1.14066E-4
3187.500000; 9.60979E-5
3193.359375; 9.86094E-5
3199.218750; 1.08790E-4
3205.078125; 1.13370E-4
3210.937500; 1.10256E-4
3216.796875; 9.44316E-5
3222.656250; 1.03289E-4
3228.515625; 1.02424E-4
3234.375000; 1.03862E-4
3240.234375; 1.17553E-4
3246.093750; 1.08184E-4
3251.953125; 1.04371E-4
3257.812500; 9.82772E-5
3263.671875; 1.01891E-4
3269.531250; 1.06858E-4
3275.390625; 1.00783E-4
3281.250000; 1.08314E-4
3287.109375; 1.18663E-4
3292.968750; 1.07246E-4
3298.828125; 1.09706E-4
3304.687500; 1.10259E-4
3310.546875; 1.09696E-4
3316.406250; 1.06371E-4
3322.265625; 1.04303E-4
3328.125000; 9.63897E-5
3333.984375; 1.19158E-4
3339.843750; 1.17896E-4
3345.703125; 1.07951E-4
3351.562500; 1.06565E-4
3357.421875; 1.25239E-4
3363.281250; 1.15523E-4
3369.140625; 1.09437E-4
3375.000000; 1.06507E-4
3380.859375; 1.03086E-4
3386.718750; 1.07584E-4
3392.578125; 1.05895E-4
3398.437500; 9.97977E-5
3404.296875; 1.12334E-4
3410.156250; 1.15003E-4
3416.015625; 1.09893E-4
3421.875000; 1.02853E-4
3427.734375; 1.07606E-4
3433.593750; 1.15332E-4
3439.453125; 1.03591E-4
3445.312500; 1.06861E-4
3451.171875; 1.06831E-4
3457.031250; 1.00448E-4
3462.890625; 1.11562E-4
3468.750000; 1.07989E-4
3474.609375; 9.88236E-5
3480.468750; 9.52437E-5
3486.328125; 9.81996E-5
3492.187500; 1.04385E-4
3498.046875; 1.02485E-4
3503.906250; 1.05502E-4
3509.765625; 1.08632E-4
3515.625000; 9.67629E-5
3521.484375; 1.10965E-4
3527.343750; 1.23262E-4
3533.203125; 1.05286E-4
3539.062500; 1.06880E-4
3544.921875; 1.13636E-4
3550.781250; 1.18107E-4
3556.640625; 1.22715E-4
3562.500000; 1.17596E-4
3568.359375; 1.21684E-4
3574.218750; 1.13115E-4
3580.078125; 1.16332E-4
3585.937500; 1.08275E-4
3591.796875; 1.10301E-4
3597.656250; 1.09499E-4
3603.515625; 1.05638E-4
3609.375000; 1.05426E-4
3615.234375; 1.20921E-4
3621.093750; 1.18254E-4
3626.953125; 1.16255E-4
3632.812500; 1.10187E-4
3638.671875; 1.10036E-4
3644.531250; 1.16182E-4
3650.390625; 1.06628E-4
3656.250000; 1.09917E-4
3662.109375; 1.08498E-4
3667.968750; 1.00389E-4
3673.828125; 9.53011E-5
3679.687500; 9.40723E-5
3685.546875; 9.11833E-5
3691.406250; 1.03478E-4
3697.265625; 1.10315E-4
3703.125000; 1.06423E-4
3708.984375; 1.09377E-4
3714.843750; 1.14158E-4
3720.703125; 1.30084E-4
3726.562500; 1.24982E-4
3732.421875; 1.00141E-4
3738.281250; 9.57448E-5
3744.140625; 1.04819E-4
3750.000000; 1.05826E-4
3755.859375; 1.02497E-4
3761.718750; 1.07856E-4
3767.578125; 1.09497E-4
3773.437500; 1.00900E-4
3779.296875; 9.95724E-5
3785.156250; 1.15778E-4
3791.015625; 1.19965E-4
3796.875000; 1.07465E-4
3802.734375; 1.01650E-4
3808.593750; 1.03466E-4
3814.453125; 1.06699E-4
3820.312500; 1.02301E-4
3826.171875; 1.12182E-4
3832.031250; 1.09417E-4
3837.890625; 1.01730E-4
3843.750000; 1.05962E-4
3849.609375; 1.08447E-4
3855.468750; 1.08030E-4
3861.328125; 1.12678E-4
3867.187500; 1.04110E-4
3873.046875; 1.10022E-4
3878.906250; 1.06391E-4
3884.765625; 1.05814E-4
3890.625000; 1.04952E-4
3896.484375; 1.11315E-4
3902.343750; 1.15417E-4
3908.203125; 1.08701E-4
3914.062500; 1.07708E-4
3919.921875; 1.01545E-4
3925.781250; 1.00762E-4
3931.640625; 1.08161E-4
3937.500000; 1.11046E-4
3943.359375; 1.06944E-4
3949.218750; 9.93444E-5
3955.078125; 1.10768E-4
3960.937500; 1.09061E-4
3966.796875; 1.13959E-4
3972.656250; 1.04740E-4
3978.515625; 1.05007E-4
3984.375000; 1.13074E-4
3990.234375; 2.53687E-4
3996.093750; 1.78608E-3
4001.953125; 2.23140E-3
4007.812500; 6.50630E-4
4013.671875; 1.28959E-4
4019.531250; 1.15275E-4
4025.390625; 1.16774E-4
4031.250000; 1.02243E-4
4037.109375; 1.14292E-4
4042.968750; 1.10923E-4
4048.828125; 1.10747E-4
4054.687500; 1.06515E-4
4060.546875; 9.80836E-5
4066.406250; 1.03689E-4
4072.265625; 9.96960E-5
4078.125000; 9.20269E-5
4083.984375; 1.04206E-4
4089.843750; 9.30211E-5
4095.703125; 1.06938E-4
4101.562500; 9.78770E-5
4107.421875; 1.15124E-4
4113.281250; 1.21407E-4
4119.140625; 1.06812E-4
4125.000000; 1.01444E-4
4130.859375; 1.03487E-4
4136.718750; 1.06841E-4
4142.578125; 1.04996E-4
4148.437500; 1.01387E-4
4154.296875; 1.16311E-4
4160.156250; 1.07950E-4
4166.015625; 9.41814E-5
4171.875000; 1.09938E-4
4177.734375; 1.04568E-4
4183.593750; 9.19391E-5
4189.453125; 9.68696E-5
4195.312500; 1.05026E-4
4201.171875; 1.04535E-4
4207.031250; 1.17658E-4
4212.890625; 1.15975E-4
4218.750000; 1.00998E-4
4224.609375; 9.91473E-5
4230.468750; 1.05089E-4
4236.328125; 1.18954E-4
4242.187500; 1.22147E-4
4248.046875; 9.94267E-5
4253.906250; 1.03395E-4
4259.765625; 1.09547E-4
4265.625000; 1.19402E-4
4271.484375; 1.19258E-4
4277.343750; 1.10209E-4
4283.203125; 1.11497E-4
4289.062500; 1.05044E-4
4294.921875; 1.10143E-4
4300.781250; 1.08717E-4
4306.640625; 1.01777E-4
4312.500000; 1.01237E-4
4318.359375; 1.04070E-4
4324.218750; 1.02886E-4
4330.078125; 9.87783E-5
4335.937500; 1.01405E-4
4341.796875; 1.06859E-4
4347.656250; 1.14473E-4
4353.515625; 1.16334E-4
4359.375000; 1.01986E-4
4365.234375; 9.89771E-5
4371.093750; 1.09196E-4
4376.953125; 1.17661E-4
4382.812500; 1.14629E-4
4388.671875; 1.03569E-4
4394.531250; 1.02137E-4
4400.390625; 1.05499E-4
4406.250000; 1.08522E-4
4412.109375; 1.19677E-4
4417.968750; 1.05158E-4
4423.828125; 1.00501E-4
4429.687500; 1.16592E-4
4435.546875; 1.13377E-4
4441.406250; 1.07093E-4
4447.265625; 9.94178E-5
4453.125000; 1.12189E-4
4458.984375; 1.08316E-4
4464.843750; 1.09758E-4
4470.703125; 1.12974E-4
4476.562500; 9.92620E-5
4482.421875; 1.08209E-4
4488.281250; 1.07502E-4
4494.140625; 1.02494E-4
4500.000000; 1.07515E-4
4505.859375; 1.08653E-4
4511.718750; 1.01460E-4
4517.578125; 1.06857E-4
4523.437500; 1.04638E-4
4529.296875; 1.06065E-4
4535.156250; 9.68836E-5
4541.015625; 1.01939E-4
4546.875000; 1.15556E-4
4552.734375; 1.11924E-4
4558.593750; 1.06423E-4
4564.453125; 1.03719E-4
4570.312500; 1.06055E-4
4576.171875; 1.12503E-4
4582.031250; 1.13121E-4
4587.890625; 1.06053E-4
4593.750000; 1.07710E-4
4599.609375; 1.07853E-4
4605.468750; 1.09074E-4
4611.328125; 1.02186E-4
4617.187500; 1.14616E-4
4623.046875; 1.08701E-4
4628.906250; 1.03956E-4
4634.765625; 9.75312E-5
4640.625000; 1.10611E-4
4646.484375; 1.09365E-4
4652.343750; 1.06693E-4
4658.203125; 1.05725E-4
4664.062500; 1.02648E-4
