* Measurement data measured by REW V5.31.3
* Source: PCM: default, no input selected, 2, volume: no control
* Format: 8192-point spectrum using Hann window and exponential averaging 0.97 
* Dated: Mar 9, 2025 1:27:46 PM
* REW Settings:
*  C-weighting compensation: Off
*  Target level: 75.0 dB
* Note: OSDEHA MU-OUTPUT; 8192-point spectrum using Hann window and exponential averaging 0.97  Input RMS 17.79 V 17.79 VC, 17.79 VA 17.79 V 22 - 22k UNW 948.8 uV >22k Distortion at 1,000.0 Hz, -14.99 dBFS: Gain: 29.68 dB THD: 0.018 % based on 21 harmonics  [0..22800 Hz] HHD: 0.0021 %  [10 .. 22] N: 0.079 %  [0..22800 Hz] N+D: 5.657 mV A THD+N: 0.081 %  [0..22800 Hz] SNR: 62.0 dB ENOB: 13.0 bits 2nd harmonic 0.018 % 140 deg 3rd harmonic 0.0014 % -26 deg 4th harmonic 0.00083 % 144 deg 5th harmonic 0.00064 % -25 deg 6th harmonic 0.00055 % -26 deg 7th harmonic 0.00058 % -12 deg 8th harmonic 0.00058 % 20 deg 9th harmonic 0.00060 % 35 deg 
* Measurement: OSDEHA MU-OUT 17.8V
* Smoothing: None
* Frequency Step: 5.859375 Hz
* Start Frequency: 5.859375 Hz
*
* Freq(Hz); V(V)
5.859375; 1.82355E-4
11.718750; 2.35448E-4
17.578125; 2.00911E-4
23.437500; 1.41867E-4
29.296875; 1.84420E-4
35.156250; 1.88879E-4
41.015625; 1.53135E-4
46.875000; 3.00873E-4
52.734375; 3.26754E-4
58.593750; 1.88179E-4
64.453125; 1.66103E-4
70.312500; 1.48059E-4
76.171875; 1.40117E-4
82.031250; 1.52877E-4
87.890625; 1.91836E-4
93.750000; 5.82761E-3
99.609375; 1.28844E-2
105.468750; 7.11490E-3
111.328125; 2.32973E-4
117.187500; 1.54460E-4
123.046875; 1.39114E-4
128.906250; 1.35631E-4
134.765625; 1.41365E-4
140.625000; 1.44579E-4
146.484375; 1.43001E-4
152.343750; 1.40529E-4
158.203125; 1.19484E-4
164.062500; 1.35493E-4
169.921875; 1.36125E-4
175.781250; 1.42471E-4
181.640625; 1.20948E-4
187.500000; 1.23260E-4
193.359375; 5.76848E-4
199.218750; 1.34375E-3
205.078125; 8.12386E-4
210.937500; 1.33000E-4
216.796875; 1.20601E-4
222.656250; 1.31340E-4
228.515625; 1.30568E-4
234.375000; 1.32480E-4
240.234375; 1.35834E-4
246.093750; 1.20825E-4
251.953125; 1.25312E-4
257.812500; 1.16213E-4
263.671875; 1.18909E-4
269.531250; 1.15669E-4
275.390625; 1.18805E-4
281.250000; 1.29219E-4
287.109375; 1.34401E-4
292.968750; 1.73481E-4
298.828125; 2.85716E-4
304.687500; 1.97735E-4
310.546875; 1.25012E-4
316.406250; 1.16407E-4
322.265625; 1.22395E-4
328.125000; 1.24822E-4
333.984375; 1.21132E-4
339.843750; 1.16702E-4
345.703125; 1.12490E-4
351.562500; 1.04347E-4
357.421875; 1.16988E-4
363.281250; 1.23164E-4
369.140625; 1.28626E-4
375.000000; 1.26427E-4
380.859375; 1.13168E-4
386.718750; 1.05583E-4
392.578125; 1.39923E-4
398.437500; 2.59651E-4
404.296875; 1.88736E-4
410.156250; 1.05566E-4
416.015625; 1.17156E-4
421.875000; 1.15795E-4
427.734375; 1.16391E-4
433.593750; 1.08914E-4
439.453125; 1.07728E-4
445.312500; 1.00497E-4
451.171875; 1.12982E-4
457.031250; 1.21414E-4
462.890625; 1.24783E-4
468.750000; 1.08736E-4
474.609375; 1.10715E-4
480.468750; 1.14282E-4
486.328125; 1.18641E-4
492.187500; 1.19365E-4
498.046875; 1.24142E-4
503.906250; 1.28326E-4
509.765625; 1.28403E-4
515.625000; 1.15024E-4
521.484375; 9.73630E-5
527.343750; 1.15463E-4
533.203125; 1.17339E-4
539.062500; 1.15274E-4
544.921875; 1.20407E-4
550.781250; 1.06973E-4
556.640625; 9.82789E-5
562.500000; 1.12769E-4
568.359375; 1.17853E-4
574.218750; 1.08409E-4
580.078125; 9.47111E-5
585.937500; 1.09077E-4
591.796875; 1.22458E-4
597.656250; 1.36476E-4
603.515625; 1.18910E-4
609.375000; 1.10799E-4
615.234375; 1.09017E-4
621.093750; 1.07632E-4
626.953125; 1.15520E-4
632.812500; 1.11580E-4
638.671875; 9.86939E-5
644.531250; 1.16529E-4
650.390625; 1.15642E-4
656.250000; 1.08720E-4
662.109375; 1.20732E-4
667.968750; 1.19772E-4
673.828125; 1.18009E-4
679.687500; 1.24634E-4
685.546875; 1.09823E-4
691.406250; 1.25272E-4
697.265625; 1.12683E-4
703.125000; 1.34293E-4
708.984375; 1.06179E-4
714.843750; 1.03557E-4
720.703125; 1.24572E-4
726.562500; 1.36896E-4
732.421875; 1.25974E-4
738.281250; 1.16173E-4
744.140625; 1.29010E-4
750.000000; 1.45443E-4
755.859375; 1.27915E-4
761.718750; 1.36605E-4
767.578125; 1.16432E-4
773.437500; 1.50903E-4
779.296875; 1.37246E-4
785.156250; 1.52990E-4
791.015625; 1.44358E-4
796.875000; 1.38625E-4
802.734375; 1.85093E-4
808.593750; 1.74751E-4
814.453125; 1.83811E-4
820.312500; 1.93600E-4
826.171875; 2.25226E-4
832.031250; 2.31684E-4
837.890625; 2.69341E-4
843.750000; 2.85124E-4
849.609375; 3.01912E-4
855.468750; 3.47579E-4
861.328125; 3.84792E-4
867.187500; 4.26691E-4
873.046875; 5.22792E-4
878.906250; 5.31581E-4
884.765625; 6.85400E-4
890.625000; 7.42084E-4
896.484375; 8.98635E-4
902.343750; 1.09401E-3
908.203125; 1.26502E-3
914.062500; 1.56955E-3
919.921875; 1.93155E-3
925.781250; 2.43556E-3
931.640625; 3.10824E-3
937.500000; 4.08004E-3
943.359375; 5.48876E-3
949.218750; 7.63239E-3
955.078125; 1.11025E-2
960.937500; 1.69033E-2
966.796875; 2.78494E-2
972.656250; 5.05769E-2
978.515625; 1.07486E-1
984.375000; 3.01031E-1
990.234375; 1.65553E0
996.093750; 1.32443E1
1001.953125; 1.65554E1
1007.812500; 4.73012E0
1013.671875; 4.73003E-1
1019.531250; 1.45543E-1
1025.390625; 6.36722E-2
1031.250000; 3.35081E-2
1037.109375; 1.98095E-2
1042.968750; 1.26769E-2
1048.828125; 8.61428E-3
1054.687500; 6.07957E-3
1060.546875; 4.48989E-3
1066.406250; 3.40588E-3
1072.265625; 2.63668E-3
1078.125000; 2.08542E-3
1083.984375; 1.67217E-3
1089.843750; 1.37999E-3
1095.703125; 1.12675E-3
1101.562500; 9.47494E-4
1107.421875; 8.17750E-4
1113.281250; 6.85612E-4
1119.140625; 5.92383E-4
1125.000000; 5.29409E-4
1130.859375; 4.46649E-4
1136.718750; 4.04609E-4
1142.578125; 3.43781E-4
1148.437500; 3.43127E-4
1154.296875; 2.80087E-4
1160.156250; 2.67614E-4
1166.015625; 2.36620E-4
1171.875000; 2.30980E-4
1177.734375; 1.87795E-4
1183.593750; 2.01217E-4
1189.453125; 1.75806E-4
1195.312500; 1.53148E-4
1201.171875; 1.57276E-4
1207.031250; 1.47847E-4
1212.890625; 1.33199E-4
1218.750000; 1.47322E-4
1224.609375; 1.40752E-4
1230.468750; 1.50654E-4
1236.328125; 1.31211E-4
1242.187500; 1.38385E-4
1248.046875; 1.10342E-4
1253.906250; 1.32020E-4
1259.765625; 1.15172E-4
1265.625000; 1.23704E-4
1271.484375; 1.33184E-4
1277.343750; 1.14838E-4
1283.203125; 1.21030E-4
1289.062500; 1.13392E-4
1294.921875; 1.06677E-4
1300.781250; 1.08559E-4
1306.640625; 1.07518E-4
1312.500000; 1.18532E-4
1318.359375; 1.23594E-4
1324.218750; 1.15848E-4
1330.078125; 1.05134E-4
1335.937500; 9.71892E-5
1341.796875; 1.15949E-4
1347.656250; 1.02853E-4
1353.515625; 1.10591E-4
1359.375000; 1.19820E-4
1365.234375; 1.20767E-4
1371.093750; 1.21134E-4
1376.953125; 1.06953E-4
1382.812500; 1.02161E-4
1388.671875; 1.07086E-4
1394.531250; 1.07813E-4
1400.390625; 1.05652E-4
1406.250000; 1.22545E-4
1412.109375; 1.18702E-4
1417.968750; 1.30772E-4
1423.828125; 1.23397E-4
1429.687500; 1.00669E-4
1435.546875; 1.15902E-4
1441.406250; 1.11821E-4
1447.265625; 1.14296E-4
1453.125000; 1.09469E-4
1458.984375; 1.09883E-4
1464.843750; 1.16939E-4
1470.703125; 1.09618E-4
1476.562500; 1.22339E-4
1482.421875; 1.07445E-4
1488.281250; 1.00520E-4
1494.140625; 1.01989E-4
1500.000000; 9.82648E-5
1505.859375; 1.05678E-4
1511.718750; 8.77021E-5
1517.578125; 9.02429E-5
1523.437500; 1.11640E-4
1529.296875; 1.02274E-4
1535.156250; 9.67041E-5
1541.015625; 9.93377E-5
1546.875000; 9.91385E-5
1552.734375; 1.12854E-4
1558.593750; 1.08877E-4
1564.453125; 1.14944E-4
1570.312500; 1.26728E-4
1576.171875; 1.07902E-4
1582.031250; 1.03536E-4
1587.890625; 1.01333E-4
1593.750000; 1.08492E-4
1599.609375; 1.19580E-4
1605.468750; 1.18736E-4
1611.328125; 1.13848E-4
1617.187500; 1.04791E-4
1623.046875; 1.00102E-4
1628.906250; 9.13530E-5
1634.765625; 1.02092E-4
1640.625000; 1.15021E-4
1646.484375; 1.12217E-4
1652.343750; 1.08508E-4
1658.203125; 9.48016E-5
1664.062500; 9.89695E-5
1669.921875; 1.09276E-4
1675.781250; 9.86724E-5
1681.640625; 1.00368E-4
1687.500000; 9.46737E-5
1693.359375; 1.07331E-4
1699.218750; 1.20054E-4
1705.078125; 1.24033E-4
1710.937500; 1.03238E-4
1716.796875; 9.33720E-5
1722.656250; 1.00708E-4
1728.515625; 1.04046E-4
1734.375000; 1.08380E-4
1740.234375; 1.17889E-4
1746.093750; 1.29410E-4
1751.953125; 1.18074E-4
1757.812500; 1.08223E-4
1763.671875; 1.09872E-4
1769.531250; 1.18134E-4
1775.390625; 1.14735E-4
1781.250000; 1.18370E-4
1787.109375; 1.08694E-4
1792.968750; 1.11944E-4
1798.828125; 1.24870E-4
1804.687500; 1.18047E-4
1810.546875; 1.14948E-4
1816.406250; 1.09108E-4
1822.265625; 9.54997E-5
1828.125000; 1.07593E-4
1833.984375; 1.21523E-4
1839.843750; 1.18819E-4
1845.703125; 1.11293E-4
1851.562500; 1.25462E-4
1857.421875; 1.21642E-4
1863.281250; 1.03386E-4
1869.140625; 1.02461E-4
1875.000000; 1.07517E-4
1880.859375; 1.07328E-4
1886.718750; 9.62978E-5
1892.578125; 1.06900E-4
1898.437500; 9.33474E-5
1904.296875; 8.73606E-5
1910.156250; 1.01331E-4
1916.015625; 1.13470E-4
1921.875000; 1.05833E-4
1927.734375; 1.13262E-4
1933.593750; 9.61015E-5
1939.453125; 1.00462E-4
1945.312500; 9.69602E-5
1951.171875; 1.12120E-4
1957.031250; 1.09500E-4
1962.890625; 9.82415E-5
1968.750000; 1.10187E-4
1974.609375; 1.19304E-4
1980.468750; 1.17653E-4
1986.328125; 1.33270E-4
1992.187500; 8.44731E-4
1998.046875; 2.93476E-3
2003.906250; 2.36174E-3
2009.765625; 3.23665E-4
2015.625000; 1.16987E-4
2021.484375; 1.06304E-4
2027.343750; 9.45330E-5
2033.203125; 9.30282E-5
2039.062500; 1.11620E-4
2044.921875; 1.16934E-4
2050.781250; 1.34835E-4
2056.640625; 1.30976E-4
2062.500000; 9.70970E-5
2068.359375; 9.95840E-5
2074.218750; 1.07328E-4
2080.078125; 1.07264E-4
2085.937500; 1.07312E-4
2091.796875; 1.08166E-4
2097.656250; 1.20082E-4
2103.515625; 1.01423E-4
2109.375000; 8.41527E-5
2115.234375; 1.00506E-4
2121.093750; 1.08746E-4
2126.953125; 9.89128E-5
2132.812500; 1.16619E-4
2138.671875; 1.14622E-4
2144.531250; 8.94725E-5
2150.390625; 9.24446E-5
2156.250000; 9.74134E-5
2162.109375; 1.04715E-4
2167.968750; 1.09861E-4
2173.828125; 1.10441E-4
2179.687500; 1.11322E-4
2185.546875; 1.26865E-4
2191.406250; 1.23797E-4
2197.265625; 1.06864E-4
2203.125000; 1.03626E-4
2208.984375; 1.15374E-4
2214.843750; 1.08140E-4
2220.703125; 9.43602E-5
2226.562500; 8.93036E-5
2232.421875; 9.36542E-5
2238.281250; 1.01177E-4
2244.140625; 1.15978E-4
2250.000000; 1.10557E-4
2255.859375; 1.06672E-4
2261.718750; 1.08343E-4
2267.578125; 1.07793E-4
2273.437500; 1.07054E-4
2279.296875; 9.69577E-5
2285.156250; 1.07971E-4
2291.015625; 1.19955E-4
2296.875000; 1.00617E-4
2302.734375; 1.00007E-4
2308.593750; 1.11602E-4
2314.453125; 1.13640E-4
2320.312500; 9.87576E-5
2326.171875; 1.02413E-4
2332.031250; 1.14031E-4
2337.890625; 1.18098E-4
2343.750000; 1.10952E-4
2349.609375; 9.24525E-5
2355.468750; 9.06223E-5
2361.328125; 1.04711E-4
2367.187500; 1.10957E-4
2373.046875; 1.27889E-4
2378.906250; 1.14170E-4
2384.765625; 1.06073E-4
2390.625000; 1.06651E-4
2396.484375; 1.10768E-4
2402.343750; 1.07467E-4
2408.203125; 1.15840E-4
2414.062500; 1.23464E-4
2419.921875; 1.11577E-4
2425.781250; 1.25585E-4
2431.640625; 1.23419E-4
2437.500000; 1.00011E-4
2443.359375; 9.77244E-5
2449.218750; 1.17143E-4
2455.078125; 1.05893E-4
2460.937500; 1.17956E-4
2466.796875; 1.15157E-4
2472.656250; 1.10853E-4
2478.515625; 9.88312E-5
2484.375000; 1.17021E-4
2490.234375; 1.14520E-4
2496.093750; 9.39729E-5
2501.953125; 9.88373E-5
2507.812500; 1.06590E-4
2513.671875; 1.09996E-4
2519.531250; 1.16686E-4
2525.390625; 1.08493E-4
2531.250000; 1.14650E-4
2537.109375; 1.06571E-4
2542.968750; 1.14549E-4
2548.828125; 1.09799E-4
2554.687500; 1.05641E-4
2560.546875; 1.17559E-4
2566.406250; 1.07169E-4
2572.265625; 1.07406E-4
2578.125000; 1.01986E-4
2583.984375; 1.01906E-4
2589.843750; 9.53624E-5
2595.703125; 9.44706E-5
2601.562500; 1.04938E-4
2607.421875; 1.02346E-4
2613.281250; 1.16550E-4
2619.140625; 1.21954E-4
2625.000000; 1.11842E-4
2630.859375; 1.09347E-4
2636.718750; 1.07219E-4
2642.578125; 9.69198E-5
2648.437500; 1.09602E-4
2654.296875; 1.13246E-4
2660.156250; 1.08809E-4
2666.015625; 1.16568E-4
2671.875000; 1.01760E-4
2677.734375; 1.05702E-4
2683.593750; 1.17380E-4
2689.453125; 1.12535E-4
2695.312500; 1.05224E-4
2701.171875; 1.06760E-4
2707.031250; 1.01345E-4
2712.890625; 1.03561E-4
2718.750000; 1.23362E-4
2724.609375; 1.21609E-4
2730.468750; 1.04905E-4
2736.328125; 1.15270E-4
2742.187500; 1.14578E-4
2748.046875; 1.14054E-4
2753.906250; 1.15102E-4
2759.765625; 1.05482E-4
2765.625000; 1.15101E-4
2771.484375; 1.12740E-4
2777.343750; 1.18560E-4
2783.203125; 1.23344E-4
2789.062500; 1.29066E-4
2794.921875; 1.24192E-4
2800.781250; 1.16548E-4
2806.640625; 1.15069E-4
2812.500000; 1.02696E-4
2818.359375; 1.03015E-4
2824.218750; 1.17681E-4
2830.078125; 1.25055E-4
2835.937500; 1.05773E-4
2841.796875; 1.03629E-4
2847.656250; 1.18099E-4
2853.515625; 1.26651E-4
2859.375000; 1.09962E-4
2865.234375; 1.07125E-4
2871.093750; 1.12576E-4
2876.953125; 1.10184E-4
2882.812500; 1.11792E-4
2888.671875; 1.18484E-4
2894.531250; 1.24178E-4
2900.390625; 1.20889E-4
2906.250000; 1.10720E-4
2912.109375; 1.02441E-4
2917.968750; 1.07654E-4
2923.828125; 1.15581E-4
2929.687500; 1.11816E-4
2935.546875; 1.13181E-4
2941.406250; 1.24123E-4
2947.265625; 1.19212E-4
2953.125000; 1.02779E-4
2958.984375; 1.00944E-4
2964.843750; 9.59886E-5
2970.703125; 1.11944E-4
2976.562500; 1.16057E-4
2982.421875; 1.14413E-4
2988.281250; 1.17883E-4
2994.140625; 1.81280E-4
3000.000000; 2.87769E-4
3005.859375; 1.64127E-4
3011.718750; 1.15909E-4
3017.578125; 1.03062E-4
3023.437500; 1.01544E-4
3029.296875; 1.07018E-4
3035.156250; 1.09420E-4
3041.015625; 1.21798E-4
3046.875000; 1.21505E-4
3052.734375; 1.09835E-4
3058.593750; 9.89931E-5
3064.453125; 8.95046E-5
3070.312500; 8.17561E-5
3076.171875; 1.06724E-4
3082.031250; 1.10962E-4
3087.890625; 9.97332E-5
3093.750000; 1.07272E-4
3099.609375; 1.06174E-4
3105.468750; 1.00933E-4
3111.328125; 9.56499E-5
3117.187500; 1.01488E-4
3123.046875; 1.23993E-4
3128.906250; 1.26228E-4
3134.765625; 1.27200E-4
3140.625000; 1.12975E-4
3146.484375; 1.12232E-4
3152.343750; 1.23636E-4
3158.203125; 9.92550E-5
3164.062500; 1.16656E-4
3169.921875; 1.07991E-4
3175.781250; 1.05562E-4
3181.640625; 1.09335E-4
3187.500000; 1.08267E-4
3193.359375; 1.07949E-4
3199.218750; 1.12428E-4
3205.078125; 1.04661E-4
3210.937500; 9.69278E-5
3216.796875; 9.92546E-5
3222.656250; 9.38187E-5
3228.515625; 1.01017E-4
3234.375000; 9.91195E-5
3240.234375; 8.80930E-5
3246.093750; 1.18064E-4
3251.953125; 1.25164E-4
3257.812500; 1.18945E-4
3263.671875; 1.24711E-4
3269.531250; 1.17620E-4
3275.390625; 1.00692E-4
3281.250000; 1.09345E-4
3287.109375; 1.20749E-4
3292.968750; 1.28609E-4
3298.828125; 1.19720E-4
3304.687500; 1.09731E-4
3310.546875; 1.27400E-4
3316.406250; 1.07541E-4
3322.265625; 1.04362E-4
3328.125000; 1.04766E-4
3333.984375; 1.07678E-4
3339.843750; 1.13186E-4
3345.703125; 1.03958E-4
3351.562500; 1.02987E-4
3357.421875; 1.06559E-4
3363.281250; 1.16312E-4
3369.140625; 1.13339E-4
3375.000000; 1.06854E-4
3380.859375; 1.03481E-4
3386.718750; 1.10870E-4
3392.578125; 1.14223E-4
3398.437500; 1.03508E-4
3404.296875; 9.22283E-5
3410.156250; 1.12418E-4
3416.015625; 1.13116E-4
3421.875000; 1.03162E-4
3427.734375; 1.13544E-4
3433.593750; 1.14093E-4
3439.453125; 9.60785E-5
3445.312500; 1.02266E-4
3451.171875; 1.16562E-4
3457.031250; 1.02900E-4
3462.890625; 1.04780E-4
3468.750000; 1.08331E-4
3474.609375; 1.19467E-4
3480.468750; 1.16113E-4
3486.328125; 1.06381E-4
3492.187500; 1.07720E-4
3498.046875; 1.11105E-4
3503.906250; 1.03632E-4
3509.765625; 9.92080E-5
3515.625000; 8.87613E-5
3521.484375; 1.05868E-4
3527.343750; 1.09966E-4
3533.203125; 1.00804E-4
3539.062500; 1.04064E-4
3544.921875; 1.16428E-4
3550.781250; 1.04333E-4
3556.640625; 9.79800E-5
3562.500000; 9.30344E-5
3568.359375; 1.01200E-4
3574.218750; 1.04383E-4
3580.078125; 1.12714E-4
3585.937500; 1.22105E-4
3591.796875; 1.26801E-4
3597.656250; 1.12472E-4
3603.515625; 1.11173E-4
3609.375000; 1.06436E-4
3615.234375; 1.03032E-4
3621.093750; 1.06539E-4
3626.953125; 1.19770E-4
3632.812500; 1.19194E-4
3638.671875; 1.20366E-4
3644.531250; 1.10481E-4
3650.390625; 1.04058E-4
3656.250000; 8.99479E-5
3662.109375; 1.03340E-4
3667.968750; 1.15400E-4
3673.828125; 1.07152E-4
3679.687500; 1.09592E-4
3685.546875; 9.80375E-5
3691.406250; 9.39324E-5
3697.265625; 9.89519E-5
3703.125000; 9.93719E-5
3708.984375; 1.05821E-4
3714.843750; 1.05745E-4
3720.703125; 1.11174E-4
3726.562500; 1.11161E-4
3732.421875; 1.13710E-4
3738.281250; 1.05710E-4
3744.140625; 1.06249E-4
3750.000000; 1.03389E-4
3755.859375; 1.04349E-4
3761.718750; 1.04292E-4
3767.578125; 1.12225E-4
3773.437500; 1.19985E-4
3779.296875; 1.07345E-4
3785.156250; 9.54048E-5
3791.015625; 1.01242E-4
3796.875000; 1.03992E-4
3802.734375; 1.18430E-4
3808.593750; 1.13237E-4
3814.453125; 1.05771E-4
3820.312500; 1.12382E-4
3826.171875; 1.28473E-4
3832.031250; 1.29646E-4
3837.890625; 1.19032E-4
3843.750000; 1.02397E-4
3849.609375; 9.13728E-5
3855.468750; 1.03556E-4
3861.328125; 1.04042E-4
3867.187500; 9.79442E-5
3873.046875; 1.11049E-4
3878.906250; 1.11526E-4
3884.765625; 1.13996E-4
3890.625000; 1.09696E-4
3896.484375; 1.04962E-4
3902.343750; 9.57202E-5
3908.203125; 1.00178E-4
3914.062500; 1.01711E-4
3919.921875; 9.71064E-5
3925.781250; 1.05696E-4
3931.640625; 1.04522E-4
3937.500000; 9.94962E-5
3943.359375; 1.17431E-4
3949.218750; 9.81842E-5
3955.078125; 9.69727E-5
3960.937500; 1.03890E-4
3966.796875; 1.09472E-4
3972.656250; 9.59790E-5
3978.515625; 9.78636E-5
3984.375000; 1.09380E-4
3990.234375; 1.01874E-4
3996.093750; 1.72670E-4
4001.953125; 1.97121E-4
4007.812500; 1.05523E-4
4013.671875; 9.44749E-5
4019.531250; 1.06322E-4
4025.390625; 1.01672E-4
4031.250000; 1.07352E-4
4037.109375; 1.12244E-4
4042.968750; 1.10647E-4
4048.828125; 1.13131E-4
4054.687500; 1.12267E-4
4060.546875; 1.09352E-4
4066.406250; 1.07625E-4
4072.265625; 1.03120E-4
4078.125000; 1.06300E-4
4083.984375; 1.17137E-4
4089.843750; 1.22006E-4
4095.703125; 1.12218E-4
4101.562500; 1.01078E-4
4107.421875; 9.78320E-5
4113.281250; 9.64158E-5
4119.140625; 9.30911E-5
4125.000000; 1.06796E-4
4130.859375; 1.03719E-4
4136.718750; 1.08085E-4
4142.578125; 1.02762E-4
4148.437500; 1.11969E-4
4154.296875; 1.17179E-4
4160.156250; 1.14578E-4
4166.015625; 9.92603E-5
4171.875000; 9.62265E-5
4177.734375; 9.18328E-5
4183.593750; 1.07460E-4
4189.453125; 1.08776E-4
4195.312500; 1.22033E-4
4201.171875; 9.46921E-5
4207.031250; 9.17726E-5
4212.890625; 1.07878E-4
4218.750000; 1.15202E-4
4224.609375; 1.25098E-4
4230.468750; 1.20672E-4
4236.328125; 9.96123E-5
4242.187500; 1.01561E-4
4248.046875; 1.15354E-4
4253.906250; 1.03297E-4
4259.765625; 1.02514E-4
4265.625000; 1.10375E-4
4271.484375; 1.19086E-4
4277.343750; 1.18112E-4
4283.203125; 1.22023E-4
4289.062500; 1.17075E-4
4294.921875; 1.08987E-4
4300.781250; 1.06563E-4
4306.640625; 1.09300E-4
4312.500000; 1.09631E-4
4318.359375; 1.14720E-4
4324.218750; 1.10632E-4
4330.078125; 1.15195E-4
4335.937500; 1.08449E-4
4341.796875; 7.84082E-5
4347.656250; 8.92172E-5
4353.515625; 1.01706E-4
4359.375000; 8.88406E-5
4365.234375; 1.14626E-4
4371.093750; 1.15621E-4
4376.953125; 1.18893E-4
4382.812500; 1.09636E-4
4388.671875; 1.13112E-4
4394.531250; 1.05143E-4
4400.390625; 9.68104E-5
4406.250000; 1.00992E-4
4412.109375; 1.10698E-4
4417.968750; 1.09719E-4
4423.828125; 1.00954E-4
4429.687500; 1.05728E-4
4435.546875; 1.08164E-4
4441.406250; 1.01303E-4
4447.265625; 1.15686E-4
4453.125000; 1.20405E-4
4458.984375; 1.06938E-4
4464.843750; 1.13554E-4
4470.703125; 1.10109E-4
4476.562500; 9.18713E-5
4482.421875; 9.54912E-5
4488.281250; 1.01287E-4
4494.140625; 1.04583E-4
4500.000000; 1.03888E-4
4505.859375; 1.19650E-4
4511.718750; 1.10455E-4
4517.578125; 1.06928E-4
4523.437500; 1.04339E-4
4529.296875; 1.15702E-4
4535.156250; 1.27242E-4
4541.015625; 1.21330E-4
4546.875000; 1.12627E-4
4552.734375; 1.00125E-4
4558.593750; 1.14718E-4
4564.453125; 1.26484E-4
4570.312500; 1.29505E-4
4576.171875; 1.17511E-4
4582.031250; 1.11392E-4
4587.890625; 1.17348E-4
4593.750000; 1.16323E-4
4599.609375; 1.02464E-4
4605.468750; 1.09764E-4
4611.328125; 1.22658E-4
4617.187500; 1.14014E-4
4623.046875; 1.02586E-4
4628.906250; 8.60219E-5
4634.765625; 9.61180E-5
4640.625000; 9.57781E-5
4646.484375; 9.86803E-5
4652.343750; 1.00758E-4
4658.203125; 1.10109E-4
4664.062500; 1.05713E-4
