* Measurement data measured by REW V5.31.3
* Source: PCM: default, no input selected, 2, volume: no control
* Format: 8192-point spectrum using Hann window and exponential averaging 0.97 
* Dated: Mar 9, 2025 1:22:58 PM
* REW Settings:
*  C-weighting compensation: Off
*  Target level: 75.0 dB
* Note: OSDEHA MU-OUTPUT; 8192-point spectrum using Hann window and exponential averaging 0.97  Input RMS 13.33 V 13.33 VC, 13.33 VA 13.33 V 22 - 22k UNW 937.0 uV >22k Distortion at 1,000.0 Hz, -17.50 dBFS: Gain: 29.68 dB THD: 0.015 % based on 21 harmonics  [0..22800 Hz] HHD: 0.0028 %  [10 .. 22] N: 0.11 %  [0..22800 Hz] N+D: 4.857 mV A THD+N: 0.11 %  [0..22800 Hz] SNR: 59.5 dB ENOB: 13.0 bits 2nd harmonic 0.014 % 142 deg 3rd harmonic 0.00096 % 8 deg 4th harmonic 0.00086 % 179 deg 5th harmonic 0.00081 % -10 deg 6th harmonic 0.00082 % 32 deg 7th harmonic 0.00083 % 38 deg 8th harmonic 0.00081 % -44 deg 9th harmonic 0.00083 % 179 deg 
* Measurement: OSDEHA MU-OUT 13.3V
* Smoothing: None
* Frequency Step: 5.859375 Hz
* Start Frequency: 5.859375 Hz
*
* Freq(Hz); V(V)
5.859375; 2.75948E-4
11.718750; 2.64242E-4
17.578125; 2.14127E-4
23.437500; 1.92747E-4
29.296875; 1.64373E-4
35.156250; 1.56559E-4
41.015625; 1.69732E-4
46.875000; 2.96256E-4
52.734375; 3.11980E-4
58.593750; 1.57245E-4
64.453125; 1.35827E-4
70.312500; 1.41606E-4
76.171875; 1.33014E-4
82.031250; 1.53859E-4
87.890625; 1.98934E-4
93.750000; 5.78571E-3
99.609375; 1.28457E-2
105.468750; 7.11064E-3
111.328125; 1.98684E-4
117.187500; 1.36707E-4
123.046875; 1.20356E-4
128.906250; 1.08001E-4
134.765625; 1.15872E-4
140.625000; 1.20755E-4
146.484375; 1.34273E-4
152.343750; 1.50650E-4
158.203125; 1.17805E-4
164.062500; 1.28249E-4
169.921875; 1.13438E-4
175.781250; 1.12052E-4
181.640625; 1.26280E-4
187.500000; 1.34703E-4
193.359375; 5.38971E-4
199.218750; 1.35036E-3
205.078125; 8.30363E-4
210.937500; 1.22143E-4
216.796875; 1.13023E-4
222.656250; 1.16795E-4
228.515625; 1.31855E-4
234.375000; 1.42827E-4
240.234375; 1.30161E-4
246.093750; 1.34236E-4
251.953125; 1.48611E-4
257.812500; 1.35906E-4
263.671875; 1.21990E-4
269.531250; 1.12768E-4
275.390625; 1.10679E-4
281.250000; 1.16346E-4
287.109375; 1.22114E-4
292.968750; 1.44202E-4
298.828125; 3.03351E-4
304.687500; 2.30855E-4
310.546875; 1.30017E-4
316.406250; 1.23306E-4
322.265625; 1.15959E-4
328.125000; 1.14482E-4
333.984375; 1.19020E-4
339.843750; 1.19957E-4
345.703125; 1.18491E-4
351.562500; 1.28818E-4
357.421875; 1.29669E-4
363.281250; 1.28286E-4
369.140625; 1.13454E-4
375.000000; 1.01005E-4
380.859375; 1.35356E-4
386.718750; 1.35206E-4
392.578125; 1.45107E-4
398.437500; 2.64698E-4
404.296875; 1.97093E-4
410.156250; 1.25402E-4
416.015625; 1.20586E-4
421.875000; 1.18298E-4
427.734375; 1.15780E-4
433.593750; 1.20228E-4
439.453125; 1.14326E-4
445.312500; 1.14388E-4
451.171875; 1.21004E-4
457.031250; 1.12995E-4
462.890625; 1.20409E-4
468.750000; 1.21209E-4
474.609375; 1.29288E-4
480.468750; 1.24665E-4
486.328125; 1.13677E-4
492.187500; 1.13541E-4
498.046875; 1.33219E-4
503.906250; 1.24643E-4
509.765625; 1.04267E-4
515.625000; 1.03541E-4
521.484375; 1.06776E-4
527.343750; 1.21578E-4
533.203125; 1.12813E-4
539.062500; 1.12230E-4
544.921875; 1.24584E-4
550.781250; 1.15452E-4
556.640625; 1.07471E-4
562.500000; 1.17638E-4
568.359375; 1.10705E-4
574.218750; 1.15636E-4
580.078125; 1.11503E-4
585.937500; 1.19397E-4
591.796875; 1.18594E-4
597.656250; 1.25615E-4
603.515625; 1.19427E-4
609.375000; 1.16090E-4
615.234375; 1.12797E-4
621.093750; 1.13788E-4
626.953125; 1.14309E-4
632.812500; 1.09720E-4
638.671875; 1.24744E-4
644.531250; 1.21685E-4
650.390625; 1.09442E-4
656.250000; 1.12861E-4
662.109375; 1.21021E-4
667.968750; 1.08411E-4
673.828125; 1.05569E-4
679.687500; 1.12758E-4
685.546875; 1.19110E-4
691.406250; 1.18822E-4
697.265625; 1.16662E-4
703.125000; 1.28171E-4
708.984375; 1.11957E-4
714.843750; 1.12686E-4
720.703125; 1.13303E-4
726.562500; 1.06329E-4
732.421875; 1.01088E-4
738.281250; 1.17122E-4
744.140625; 1.22108E-4
750.000000; 1.22444E-4
755.859375; 1.17724E-4
761.718750; 1.14788E-4
767.578125; 1.12378E-4
773.437500; 1.28423E-4
779.296875; 1.21430E-4
785.156250; 1.40665E-4
791.015625; 1.47319E-4
796.875000; 1.43870E-4
802.734375; 1.55631E-4
808.593750; 1.37647E-4
814.453125; 1.70724E-4
820.312500; 1.56871E-4
826.171875; 1.82053E-4
832.031250; 1.75686E-4
837.890625; 2.12802E-4
843.750000; 2.28148E-4
849.609375; 2.40562E-4
855.468750; 2.79177E-4
861.328125; 2.90457E-4
867.187500; 3.35485E-4
873.046875; 3.87192E-4
878.906250; 4.23241E-4
884.765625; 4.96653E-4
890.625000; 5.86336E-4
896.484375; 6.80474E-4
902.343750; 8.02450E-4
908.203125; 9.59418E-4
914.062500; 1.16570E-3
919.921875; 1.46572E-3
925.781250; 1.82440E-3
931.640625; 2.33276E-3
937.500000; 3.04636E-3
943.359375; 4.12394E-3
949.218750; 5.72137E-3
955.078125; 8.28749E-3
960.937500; 1.26917E-2
966.796875; 2.08455E-2
972.656250; 3.78893E-2
978.515625; 8.05258E-2
984.375000; 2.25463E-1
990.234375; 1.24009E0
996.093750; 9.92065E0
1001.953125; 1.24008E1
1007.812500; 3.54310E0
1013.671875; 3.54302E-1
1019.531250; 1.09017E-1
1025.390625; 4.76905E-2
1031.250000; 2.51081E-2
1037.109375; 1.48341E-2
1042.968750; 9.49238E-3
1048.828125; 6.44695E-3
1054.687500; 4.57891E-3
1060.546875; 3.35043E-3
1066.406250; 2.54502E-3
1072.265625; 1.98873E-3
1078.125000; 1.55172E-3
1083.984375; 1.26241E-3
1089.843750; 1.04827E-3
1095.703125; 8.23880E-4
1101.562500; 7.33598E-4
1107.421875; 6.12411E-4
1113.281250; 5.08523E-4
1119.140625; 4.60701E-4
1125.000000; 3.99382E-4
1130.859375; 3.36996E-4
1136.718750; 3.14809E-4
1142.578125; 2.71016E-4
1148.437500; 2.61586E-4
1154.296875; 2.29653E-4
1160.156250; 2.09623E-4
1166.015625; 1.97135E-4
1171.875000; 1.96133E-4
1177.734375; 1.51098E-4
1183.593750; 1.85391E-4
1189.453125; 1.41970E-4
1195.312500; 1.62273E-4
1201.171875; 1.46683E-4
1207.031250; 1.38498E-4
1212.890625; 1.41043E-4
1218.750000; 1.31191E-4
1224.609375; 1.18297E-4
1230.468750; 1.12881E-4
1236.328125; 1.16468E-4
1242.187500; 1.32074E-4
1248.046875; 1.13174E-4
1253.906250; 1.33611E-4
1259.765625; 1.20631E-4
1265.625000; 1.15401E-4
1271.484375; 1.21439E-4
1277.343750; 1.20070E-4
1283.203125; 1.21646E-4
1289.062500; 1.24841E-4
1294.921875; 1.09072E-4
1300.781250; 1.10169E-4
1306.640625; 1.08312E-4
1312.500000; 1.02601E-4
1318.359375; 1.09580E-4
1324.218750; 1.21288E-4
1330.078125; 1.13918E-4
1335.937500; 1.11285E-4
1341.796875; 1.19596E-4
1347.656250; 1.21115E-4
1353.515625; 1.15717E-4
1359.375000; 1.24743E-4
1365.234375; 1.12846E-4
1371.093750; 9.89922E-5
1376.953125; 1.03795E-4
1382.812500; 1.05274E-4
1388.671875; 1.08552E-4
1394.531250; 1.14898E-4
1400.390625; 1.17648E-4
1406.250000; 1.14451E-4
1412.109375; 1.07209E-4
1417.968750; 1.06901E-4
1423.828125; 1.18875E-4
1429.687500; 9.46963E-5
1435.546875; 1.03668E-4
1441.406250; 1.03357E-4
1447.265625; 1.00422E-4
1453.125000; 1.07923E-4
1458.984375; 1.06708E-4
1464.843750; 1.11558E-4
1470.703125; 1.15261E-4
1476.562500; 1.12726E-4
1482.421875; 1.13904E-4
1488.281250; 1.18985E-4
1494.140625; 1.02754E-4
1500.000000; 1.05363E-4
1505.859375; 9.99182E-5
1511.718750; 1.18321E-4
1517.578125; 1.27965E-4
1523.437500; 1.03244E-4
1529.296875; 9.89269E-5
1535.156250; 1.01850E-4
1541.015625; 1.00009E-4
1546.875000; 9.10204E-5
1552.734375; 9.10467E-5
1558.593750; 9.53145E-5
1564.453125; 1.03556E-4
1570.312500; 1.08757E-4
1576.171875; 1.06413E-4
1582.031250; 1.01278E-4
1587.890625; 1.09743E-4
1593.750000; 1.14683E-4
1599.609375; 1.10717E-4
1605.468750; 1.15041E-4
1611.328125; 1.11051E-4
1617.187500; 1.10123E-4
1623.046875; 1.11391E-4
1628.906250; 1.03736E-4
1634.765625; 1.03615E-4
1640.625000; 1.19947E-4
1646.484375; 1.18062E-4
1652.343750; 9.64709E-5
1658.203125; 9.33140E-5
1664.062500; 1.00563E-4
1669.921875; 1.14349E-4
1675.781250; 1.13223E-4
1681.640625; 1.00210E-4
1687.500000; 9.54528E-5
1693.359375; 9.22149E-5
1699.218750; 1.12551E-4
1705.078125; 1.14633E-4
1710.937500; 1.16632E-4
1716.796875; 1.18943E-4
1722.656250; 1.12873E-4
1728.515625; 1.10021E-4
1734.375000; 1.10338E-4
1740.234375; 1.08061E-4
1746.093750; 1.05918E-4
1751.953125; 1.11679E-4
1757.812500; 1.03300E-4
1763.671875; 1.00878E-4
1769.531250; 1.14899E-4
1775.390625; 1.13170E-4
1781.250000; 1.18411E-4
1787.109375; 1.23473E-4
1792.968750; 1.03666E-4
1798.828125; 1.05879E-4
1804.687500; 1.11552E-4
1810.546875; 9.52769E-5
1816.406250; 1.03257E-4
1822.265625; 1.12573E-4
1828.125000; 1.01861E-4
1833.984375; 1.05272E-4
1839.843750; 9.99940E-5
1845.703125; 1.05775E-4
1851.562500; 9.34941E-5
1857.421875; 1.06421E-4
1863.281250; 1.09087E-4
1869.140625; 1.09694E-4
1875.000000; 1.16851E-4
1880.859375; 9.72038E-5
1886.718750; 1.08972E-4
1892.578125; 1.28335E-4
1898.437500; 1.22632E-4
1904.296875; 1.10567E-4
1910.156250; 1.15446E-4
1916.015625; 1.29557E-4
1921.875000; 1.23501E-4
1927.734375; 1.15453E-4
1933.593750; 1.11065E-4
1939.453125; 1.06011E-4
1945.312500; 1.08654E-4
1951.171875; 1.03148E-4
1957.031250; 1.03171E-4
1962.890625; 1.04532E-4
1968.750000; 1.00251E-4
1974.609375; 1.04648E-4
1980.468750; 1.10060E-4
1986.328125; 1.26355E-4
1992.187500; 5.07156E-4
1998.046875; 1.78572E-3
2003.906250; 1.43635E-3
2009.765625; 2.16682E-4
2015.625000; 1.17341E-4
2021.484375; 1.14833E-4
2027.343750; 1.13288E-4
2033.203125; 1.15334E-4
2039.062500; 1.08278E-4
2044.921875; 1.14972E-4
2050.781250; 1.03878E-4
2056.640625; 1.08018E-4
2062.500000; 1.28227E-4
2068.359375; 1.25871E-4
2074.218750; 1.08805E-4
2080.078125; 1.12710E-4
2085.937500; 1.12003E-4
2091.796875; 1.09741E-4
2097.656250; 1.11912E-4
2103.515625; 1.12961E-4
2109.375000; 1.12789E-4
2115.234375; 1.20609E-4
2121.093750; 1.06615E-4
2126.953125; 1.07263E-4
2132.812500; 1.22159E-4
2138.671875; 1.29665E-4
2144.531250; 1.23023E-4
2150.390625; 1.11137E-4
2156.250000; 1.01228E-4
2162.109375; 1.04311E-4
2167.968750; 9.78453E-5
2173.828125; 1.07290E-4
2179.687500; 1.06125E-4
2185.546875; 1.03682E-4
2191.406250; 1.16307E-4
2197.265625; 1.14026E-4
2203.125000; 1.05286E-4
2208.984375; 1.06171E-4
2214.843750; 1.16996E-4
2220.703125; 1.04038E-4
2226.562500; 1.01727E-4
2232.421875; 9.63541E-5
2238.281250; 1.06200E-4
2244.140625; 1.15796E-4
2250.000000; 1.15323E-4
2255.859375; 9.38413E-5
2261.718750; 1.04872E-4
2267.578125; 1.16686E-4
2273.437500; 1.04970E-4
2279.296875; 1.02563E-4
2285.156250; 1.05558E-4
2291.015625; 1.16645E-4
2296.875000; 1.10697E-4
2302.734375; 1.07166E-4
2308.593750; 1.12203E-4
2314.453125; 1.04915E-4
2320.312500; 9.91459E-5
2326.171875; 1.09457E-4
2332.031250; 1.04148E-4
2337.890625; 1.05385E-4
2343.750000; 1.12496E-4
2349.609375; 1.07822E-4
2355.468750; 8.77246E-5
2361.328125; 9.98403E-5
2367.187500; 1.15078E-4
2373.046875; 1.02422E-4
2378.906250; 1.07997E-4
2384.765625; 1.13952E-4
2390.625000; 1.18268E-4
2396.484375; 1.04834E-4
2402.343750; 1.01363E-4
2408.203125; 1.01103E-4
2414.062500; 1.07925E-4
2419.921875; 1.06160E-4
2425.781250; 1.03883E-4
2431.640625; 1.17505E-4
2437.500000; 1.01194E-4
2443.359375; 1.04260E-4
2449.218750; 1.19830E-4
2455.078125; 1.20294E-4
2460.937500; 1.13365E-4
2466.796875; 1.02831E-4
2472.656250; 1.09696E-4
2478.515625; 1.13315E-4
2484.375000; 1.10414E-4
2490.234375; 1.19237E-4
2496.093750; 1.09293E-4
2501.953125; 1.04262E-4
2507.812500; 1.13223E-4
2513.671875; 1.16420E-4
2519.531250; 1.11347E-4
2525.390625; 1.19369E-4
2531.250000; 1.15901E-4
2537.109375; 1.08233E-4
2542.968750; 1.10691E-4
2548.828125; 1.10732E-4
2554.687500; 1.13195E-4
2560.546875; 1.05524E-4
2566.406250; 1.03828E-4
2572.265625; 9.91943E-5
2578.125000; 1.01285E-4
2583.984375; 1.05815E-4
2589.843750; 1.11402E-4
2595.703125; 1.04635E-4
2601.562500; 1.02627E-4
2607.421875; 9.17493E-5
2613.281250; 1.08293E-4
2619.140625; 1.14938E-4
2625.000000; 1.02228E-4
2630.859375; 1.06594E-4
2636.718750; 1.12182E-4
2642.578125; 1.09395E-4
2648.437500; 1.16179E-4
2654.296875; 1.10320E-4
2660.156250; 9.96174E-5
2666.015625; 1.08996E-4
2671.875000; 1.03611E-4
2677.734375; 1.17895E-4
2683.593750; 1.06941E-4
2689.453125; 1.06536E-4
2695.312500; 1.05873E-4
2701.171875; 1.00000E-4
2707.031250; 1.05880E-4
2712.890625; 1.10897E-4
2718.750000; 1.10040E-4
2724.609375; 1.12316E-4
2730.468750; 1.26485E-4
2736.328125; 1.17596E-4
2742.187500; 1.00730E-4
2748.046875; 1.03036E-4
2753.906250; 1.07886E-4
2759.765625; 1.10177E-4
2765.625000; 1.00639E-4
2771.484375; 9.96048E-5
2777.343750; 1.11005E-4
2783.203125; 1.01905E-4
2789.062500; 1.11613E-4
2794.921875; 1.14896E-4
2800.781250; 1.11125E-4
2806.640625; 1.13025E-4
2812.500000; 1.09853E-4
2818.359375; 1.05355E-4
2824.218750; 1.07827E-4
2830.078125; 1.08063E-4
2835.937500; 1.10344E-4
2841.796875; 1.03221E-4
2847.656250; 1.07868E-4
2853.515625; 1.17892E-4
2859.375000; 1.11272E-4
2865.234375; 9.65719E-5
2871.093750; 1.03586E-4
2876.953125; 1.24294E-4
2882.812500; 1.19444E-4
2888.671875; 1.07120E-4
2894.531250; 1.06257E-4
2900.390625; 1.14781E-4
2906.250000; 1.22774E-4
2912.109375; 1.17815E-4
2917.968750; 1.21896E-4
2923.828125; 1.17510E-4
2929.687500; 1.15778E-4
2935.546875; 1.08026E-4
2941.406250; 1.09441E-4
2947.265625; 9.60280E-5
2953.125000; 9.71280E-5
2958.984375; 1.06367E-4
2964.843750; 1.06948E-4
2970.703125; 1.18913E-4
2976.562500; 1.03094E-4
2982.421875; 1.05190E-4
2988.281250; 9.91980E-5
2994.140625; 1.09438E-4
3000.000000; 1.67142E-4
3005.859375; 1.21489E-4
3011.718750; 1.08135E-4
3017.578125; 1.04903E-4
3023.437500; 1.03763E-4
3029.296875; 9.72842E-5
3035.156250; 1.06176E-4
3041.015625; 1.20580E-4
3046.875000; 1.18717E-4
3052.734375; 1.01402E-4
3058.593750; 1.02717E-4
3064.453125; 9.97775E-5
3070.312500; 1.07428E-4
3076.171875; 1.23949E-4
3082.031250; 1.13954E-4
3087.890625; 1.07062E-4
3093.750000; 1.01884E-4
3099.609375; 9.80910E-5
3105.468750; 1.07362E-4
3111.328125; 1.07196E-4
3117.187500; 9.92624E-5
3123.046875; 9.36967E-5
3128.906250; 1.17391E-4
3134.765625; 1.12103E-4
3140.625000; 1.02545E-4
3146.484375; 1.03093E-4
3152.343750; 9.21031E-5
3158.203125; 1.02988E-4
3164.062500; 1.08758E-4
3169.921875; 1.06376E-4
3175.781250; 1.11429E-4
3181.640625; 1.11941E-4
3187.500000; 1.05323E-4
3193.359375; 1.04281E-4
3199.218750; 1.11518E-4
3205.078125; 1.08861E-4
3210.937500; 1.02651E-4
3216.796875; 9.91764E-5
3222.656250; 1.01647E-4
3228.515625; 1.14038E-4
3234.375000; 1.07964E-4
3240.234375; 9.92230E-5
3246.093750; 1.00663E-4
3251.953125; 1.07561E-4
3257.812500; 1.13652E-4
3263.671875; 1.08041E-4
3269.531250; 1.02297E-4
3275.390625; 1.11659E-4
3281.250000; 1.27304E-4
3287.109375; 1.24450E-4
3292.968750; 1.07207E-4
3298.828125; 1.06216E-4
3304.687500; 1.03867E-4
3310.546875; 9.77907E-5
3316.406250; 1.09921E-4
3322.265625; 1.17524E-4
3328.125000; 1.22441E-4
3333.984375; 1.13120E-4
3339.843750; 1.05236E-4
3345.703125; 1.06147E-4
3351.562500; 1.12014E-4
3357.421875; 1.01441E-4
3363.281250; 1.00651E-4
3369.140625; 1.18904E-4
3375.000000; 1.17552E-4
3380.859375; 1.01251E-4
3386.718750; 1.02969E-4
3392.578125; 1.11899E-4
3398.437500; 1.15346E-4
3404.296875; 1.14166E-4
3410.156250; 1.22114E-4
3416.015625; 1.14854E-4
3421.875000; 1.03171E-4
3427.734375; 9.64789E-5
3433.593750; 9.90113E-5
3439.453125; 1.00206E-4
3445.312500; 1.18638E-4
3451.171875; 1.25591E-4
3457.031250; 1.06639E-4
3462.890625; 1.17376E-4
3468.750000; 1.16138E-4
3474.609375; 1.14179E-4
3480.468750; 1.11518E-4
3486.328125; 1.18179E-4
3492.187500; 1.12658E-4
3498.046875; 1.07654E-4
3503.906250; 1.04648E-4
3509.765625; 1.02135E-4
3515.625000; 1.02442E-4
3521.484375; 1.31551E-4
3527.343750; 1.07490E-4
3533.203125; 1.10237E-4
3539.062500; 1.12252E-4
3544.921875; 1.13823E-4
3550.781250; 1.18318E-4
3556.640625; 1.06236E-4
3562.500000; 1.05361E-4
3568.359375; 1.06666E-4
3574.218750; 9.40585E-5
3580.078125; 9.17087E-5
3585.937500; 1.16115E-4
3591.796875; 1.17950E-4
3597.656250; 9.53475E-5
3603.515625; 9.68543E-5
3609.375000; 1.09679E-4
3615.234375; 1.18589E-4
3621.093750; 1.07338E-4
3626.953125; 1.05602E-4
3632.812500; 1.00870E-4
3638.671875; 9.75699E-5
3644.531250; 1.05734E-4
3650.390625; 1.05237E-4
3656.250000; 9.11227E-5
3662.109375; 8.91861E-5
3667.968750; 1.05123E-4
3673.828125; 1.01393E-4
3679.687500; 9.88132E-5
3685.546875; 1.04874E-4
3691.406250; 1.08719E-4
3697.265625; 1.06288E-4
3703.125000; 1.02372E-4
3708.984375; 1.07715E-4
3714.843750; 1.13405E-4
3720.703125; 1.20438E-4
3726.562500; 1.11480E-4
3732.421875; 1.07549E-4
3738.281250; 1.02470E-4
3744.140625; 1.03491E-4
3750.000000; 9.85838E-5
3755.859375; 1.02350E-4
3761.718750; 1.14685E-4
3767.578125; 1.21227E-4
3773.437500; 1.21108E-4
3779.296875; 9.30067E-5
3785.156250; 1.04497E-4
3791.015625; 1.12359E-4
3796.875000; 1.09082E-4
3802.734375; 1.12145E-4
3808.593750; 1.04469E-4
3814.453125; 1.10844E-4
3820.312500; 1.20234E-4
3826.171875; 1.13556E-4
3832.031250; 1.04747E-4
3837.890625; 9.85295E-5
3843.750000; 1.11656E-4
3849.609375; 1.20079E-4
3855.468750; 9.98854E-5
3861.328125; 9.79641E-5
3867.187500; 1.01798E-4
3873.046875; 1.06058E-4
3878.906250; 1.04793E-4
3884.765625; 1.18003E-4
3890.625000; 1.27373E-4
3896.484375; 1.17253E-4
3902.343750; 1.10320E-4
3908.203125; 1.14192E-4
3914.062500; 1.05988E-4
3919.921875; 1.04321E-4
3925.781250; 1.07998E-4
3931.640625; 1.00155E-4
3937.500000; 1.06769E-4
3943.359375; 1.21268E-4
3949.218750; 1.10555E-4
3955.078125; 1.08280E-4
3960.937500; 9.59709E-5
3966.796875; 8.62788E-5
3972.656250; 1.06443E-4
3978.515625; 1.12102E-4
3984.375000; 1.14930E-4
3990.234375; 1.17985E-4
3996.093750; 1.18347E-4
4001.953125; 1.29137E-4
4007.812500; 1.01892E-4
4013.671875; 9.81556E-5
4019.531250; 1.01642E-4
4025.390625; 1.09722E-4
4031.250000; 1.13278E-4
4037.109375; 1.05824E-4
4042.968750; 1.00526E-4
4048.828125; 1.03804E-4
4054.687500; 1.08885E-4
4060.546875; 1.00927E-4
4066.406250; 1.11674E-4
4072.265625; 1.06653E-4
4078.125000; 1.13904E-4
4083.984375; 1.01984E-4
4089.843750; 1.07658E-4
4095.703125; 1.13376E-4
4101.562500; 1.05757E-4
4107.421875; 1.11119E-4
4113.281250; 1.09663E-4
4119.140625; 1.08089E-4
4125.000000; 1.08497E-4
4130.859375; 9.35333E-5
4136.718750; 1.14592E-4
4142.578125; 1.16860E-4
4148.437500; 1.04906E-4
4154.296875; 1.10095E-4
4160.156250; 1.01441E-4
4166.015625; 1.10239E-4
4171.875000; 1.04725E-4
4177.734375; 1.01546E-4
4183.593750; 1.02067E-4
4189.453125; 1.11672E-4
4195.312500; 1.09560E-4
4201.171875; 1.08644E-4
4207.031250; 1.09855E-4
4212.890625; 1.05067E-4
4218.750000; 9.90600E-5
4224.609375; 1.06659E-4
4230.468750; 1.06769E-4
4236.328125; 1.12217E-4
4242.187500; 1.15029E-4
4248.046875; 1.14109E-4
4253.906250; 1.06135E-4
4259.765625; 9.95039E-5
4265.625000; 1.02086E-4
4271.484375; 9.67056E-5
4277.343750; 1.01428E-4
4283.203125; 1.00693E-4
4289.062500; 9.22400E-5
4294.921875; 9.57369E-5
4300.781250; 1.09500E-4
4306.640625; 1.16291E-4
4312.500000; 1.14527E-4
4318.359375; 1.06769E-4
4324.218750; 1.03857E-4
4330.078125; 1.04999E-4
4335.937500; 1.17160E-4
4341.796875; 1.12838E-4
4347.656250; 9.54115E-5
4353.515625; 9.83960E-5
4359.375000; 9.67241E-5
4365.234375; 1.04680E-4
4371.093750; 1.13958E-4
4376.953125; 1.08216E-4
4382.812500; 1.06633E-4
4388.671875; 1.09808E-4
4394.531250; 1.00073E-4
4400.390625; 1.08451E-4
4406.250000; 1.11117E-4
4412.109375; 1.04931E-4
4417.968750; 9.24712E-5
4423.828125; 9.56714E-5
4429.687500; 1.04500E-4
4435.546875; 1.14326E-4
4441.406250; 1.11335E-4
4447.265625; 1.16047E-4
4453.125000; 1.07621E-4
4458.984375; 1.01089E-4
4464.843750; 1.06456E-4
4470.703125; 1.04616E-4
4476.562500; 1.03257E-4
4482.421875; 1.20041E-4
4488.281250; 1.11199E-4
4494.140625; 9.99638E-5
4500.000000; 9.35798E-5
4505.859375; 1.06278E-4
4511.718750; 1.01592E-4
4517.578125; 9.41698E-5
4523.437500; 9.77316E-5
4529.296875; 1.06183E-4
4535.156250; 1.09355E-4
4541.015625; 1.04489E-4
4546.875000; 1.04220E-4
4552.734375; 1.11562E-4
4558.593750; 1.08045E-4
4564.453125; 1.14927E-4
4570.312500; 1.02386E-4
4576.171875; 1.02578E-4
4582.031250; 1.03843E-4
4587.890625; 1.00958E-4
4593.750000; 1.04698E-4
4599.609375; 1.10857E-4
4605.468750; 1.07258E-4
4611.328125; 1.18055E-4
4617.187500; 1.21339E-4
4623.046875; 1.01065E-4
4628.906250; 1.11480E-4
4634.765625; 1.20064E-4
4640.625000; 1.06401E-4
4646.484375; 1.14831E-4
4652.343750; 1.25845E-4
4658.203125; 1.15160E-4
4664.062500; 9.56199E-5
